Name           :	1mgmlAuDDT_O11	
User           :	Isaac	
Date           :	8/6/2014	

Probe1         :	Wilhelmy	
Perimeter      : 	39.240	

Probe2         :	Wilhelmy	
Perimeter      : 	39.240	

Trough         :	Extra Small	
Width          :	50.0	
Area           :	7035.0	
Symmetric comp :	True	

Subphase       :	Water	
Surface tension:	72.80	
pH             :	7.00	
Temperature    :	19.5	

Addition       :		
Concentration  :		
Unit           :	Unknown         	

Substance1     :	Au NP	
MW             :	197.0	
Concentration  :	1.000	
Unit           :	mg/ml           	
Volume         :	400.00	

Substance2     :		
MW             : 		
Concentration  : 		
Unit           :	Unknown         	
Volume         : 		

Substrate      :		
Height         : 		
Shape          : 	Rectangle       	
Width          :		
Thickness      :		


t[s]	Bpos	Bspd	A[cm²]	Mma[Å²]	P1[mN/m]	P2[mN/m]	T[°C]	SP[V]	pH	AD[V]
13.44	14.034	19.111	56.32	0.46	2.901	1.566	-135.71		-0.69	0.000
13.72	14.130	19.087	56.22	0.46	3.025	1.567	-69.02		-0.69	0.000
14.00	14.225	19.014	56.12	0.46	3.070	1.603	40.57		-0.69	0.000
14.29	14.320	18.882	56.03	0.46	3.131	1.623	71.57		-0.69	0.000
14.57	14.414	18.702	55.94	0.46	3.195	1.670	77.99		-0.69	0.000
14.85	14.475	18.450	55.87	0.46	3.239	1.715	84.97		-0.69	0.000
15.14	14.567	18.161	55.78	0.46	3.333	1.753	93.14		-0.69	0.000
15.42	14.656	17.825	55.69	0.46	3.374	1.798	93.72		-0.69	0.000
15.69	14.744	17.416	55.61	0.45	3.435	1.839	72.90		-0.69	0.000
15.97	14.831	16.983	55.52	0.45	3.496	1.880	-15.75		-0.69	0.000
16.25	14.887	16.514	55.46	0.45	3.533	1.923	-69.96		-0.69	0.000
16.54	14.969	15.986	55.38	0.45	3.597	1.957	-189.05		-0.69	0.000
16.82	15.046	15.409	55.30	0.45	3.636	1.992	-267.71		-0.69	0.000
17.10	15.122	14.760	55.23	0.45	3.680	2.025	-282.48		-0.69	0.000
17.39	15.192	14.099	55.16	0.45	3.723	2.063	-277.17		-0.69	0.000
17.67	15.239	13.401	55.11	0.45	3.761	2.097	-264.33		-0.69	0.000
17.95	15.305	12.632	55.05	0.45	3.794	2.123	-261.51		-0.69	0.000
18.23	15.366	11.863	54.98	0.45	3.816	2.148	-279.46		-0.69	0.000
18.51	15.421	11.058	54.93	0.45	3.852	2.176	-334.12		-0.69	0.000
18.79	15.476	10.240	54.87	0.45	3.879	2.197	-346.80		-0.69	0.000
19.06	15.507	9.351	54.84	0.45	3.900	2.221	-321.63		-0.69	0.000
19.35	15.552	8.462	54.80	0.45	3.918	2.239	-240.29		-0.69	0.000
19.63	15.592	7.572	54.76	0.45	3.928	2.256	-204.53		-0.69	0.000
19.90	15.626	6.599	54.72	0.45	3.939	2.272	-185.41		-0.69	0.000
20.18	15.647	5.649	54.70	0.45	3.947	2.286	-198.07		-0.69	0.000
20.46	15.674	4.712	54.68	0.45	3.950	2.292	-251.00		-0.69	0.000
20.74	15.690	3.726	54.66	0.45	3.947	2.294	-286.02		-0.69	0.000
21.02	15.704	2.728	54.65	0.45	3.941	2.295	-325.61		-0.69	0.000
21.30	15.713	1.731	54.64	0.45	3.921	2.295	-331.84		-0.69	0.000
21.58	15.721	0.721	54.63	0.45	3.911	2.287	-319.44		-0.69	0.000
21.86	15.721	-0.276	54.63	0.45	3.881	2.281	-309.40		-0.69	0.000
22.15	15.721	-1.286	54.63	0.45	3.863	2.270	-309.63		-0.69	0.000
22.42	15.721	-2.284	54.63	0.45	3.841	2.257	-305.46		-0.69	0.000
22.71	15.712	-3.317	54.64	0.45	3.823	2.240	-284.13		-0.69	0.000
22.98	15.698	-4.279	54.65	0.45	3.808	2.226	-212.08		-0.69	0.000
23.27	15.672	-5.288	54.68	0.45	3.790	2.211	-186.78		-0.69	0.000
23.55	15.644	-6.214	54.71	0.45	3.769	2.198	-142.12		-0.69	0.000
23.83	15.610	-7.188	54.74	0.45	3.744	2.181	-130.31		-0.69	0.000
24.11	15.584	-8.113	54.77	0.45	3.723	2.158	-122.61		-0.69	0.000
24.39	15.542	-9.014	54.81	0.45	3.699	2.136	-127.80		-0.69	0.000
24.67	15.494	-9.892	54.86	0.45	3.661	2.108	-160.54		-0.69	0.000
24.95	15.443	-10.709	54.91	0.45	3.615	2.072	-174.52		-0.69	0.000
25.23	15.385	-11.563	54.96	0.45	3.573	2.034	-202.86		-0.69	0.000
25.52	15.347	-12.356	55.00	0.45	3.558	2.000	-268.11		-0.69	0.000
25.80	15.283	-13.101	55.07	0.45	3.543	1.978	-315.15		-0.69	0.000
26.08	15.215	-13.846	55.14	0.45	3.506	1.961	-391.22		-0.69	0.000
26.36	15.144	-14.519	55.21	0.45	3.453	1.938	-421.95		-0.69	0.000
26.64	15.070	-15.156	55.28	0.45	3.399	1.923	-449.03		-0.69	0.000
26.92	15.019	-15.745	55.33	0.45	3.336	1.878	-446.57		-0.69	0.000
27.24	14.938	-16.298	55.41	0.45	3.280	1.829	-430.40		-0.69	0.000
27.53	14.826	-16.803	55.52	0.45	3.220	1.747	-423.22		-0.69	0.000
27.81	14.771	-17.320	55.58	0.45	3.166	1.688	-439.82		-0.69	0.000
28.07	14.683	-17.728	55.67	0.46	3.114	1.657	-506.68		-0.69	0.000
28.35	14.594	-18.077	55.76	0.46	3.065	1.603	-526.80		-0.69	0.000
28.62	14.533	-18.365	55.82	0.46	3.016	1.549	-538.37		-0.69	0.000
28.89	14.440	-18.618	55.91	0.46	2.940	1.502	-528.80		-0.69	0.000
29.17	14.347	-18.822	56.00	0.46	2.903	1.457	-497.80		-0.69	0.000
29.44	14.255	-18.966	56.10	0.46	2.831	1.409	-478.94		-0.69	0.000
29.72	14.188	-19.063	56.16	0.46	2.772	1.368	-433.50		-0.69	0.000
29.99	14.094	-19.111	56.26	0.46	2.704	1.331	-402.65		-0.69	0.000
30.26	13.998	-19.111	56.35	0.46	2.648	1.303	-329.13		-0.69	0.000
30.53	13.934	-19.050	56.42	0.46	2.607	1.276	-299.24		-0.69	0.000
30.80	13.840	-18.942	56.51	0.46	2.566	1.266	-242.09		-0.69	0.000
31.07	13.744	-18.798	56.61	0.46	2.521	1.250	-211.05		-0.69	0.000
31.34	13.652	-18.594	56.70	0.46	2.496	1.231	-170.60		-0.69	0.000
31.62	13.590	-18.341	56.76	0.46	2.470	1.216	-159.18		-0.69	0.000
31.90	13.498	-18.041	56.85	0.46	2.436	1.201	-144.52		-0.69	0.000
32.16	13.411	-17.692	56.94	0.47	2.413	1.189	-135.05		-0.69	0.000
32.44	13.352	-17.284	57.00	0.47	2.384	1.176	-126.15		-0.69	0.000
32.71	13.265	-16.851	57.09	0.47	2.366	1.162	-126.25		-0.69	0.000
32.98	13.185	-16.358	57.16	0.47	2.347	1.152	-165.92		-0.69	0.000
33.26	13.103	-15.841	57.25	0.47	2.324	1.146	-196.67		-0.69	0.000
33.53	13.051	-15.264	57.30	0.47	2.313	1.139	-231.22		-0.69	0.000
33.80	12.976	-14.651	57.37	0.47	2.290	1.132	-234.86		-0.69	0.000
34.08	12.906	-13.990	57.44	0.47	2.285	1.122	-258.66		-0.69	0.000
34.35	12.858	-13.317	57.49	0.47	2.273	1.114	-273.83		-0.69	0.000
34.62	12.794	-12.584	57.56	0.47	2.257	1.106	-272.54		-0.69	0.000
34.89	12.734	-11.839	57.62	0.47	2.247	1.097	-257.40		-0.69	0.000
35.17	12.675	-11.058	57.67	0.47	2.235	1.090	-222.78		-0.69	0.000
35.44	12.641	-10.228	57.71	0.47	2.223	1.086	-217.94		-0.69	0.000
35.71	12.592	-9.387	57.76	0.47	2.212	1.079	-213.72		-0.69	0.000
35.99	12.548	-8.510	57.80	0.47	2.208	1.075	-196.63		-0.69	0.000
36.26	12.520	-7.620	57.83	0.47	2.193	1.073	-140.67		-0.69	0.000
36.53	12.485	-6.707	57.86	0.47	2.190	1.069	-100.59		-0.69	0.000
36.80	12.455	-5.781	57.90	0.47	2.184	1.065	-82.78		-0.69	0.000
37.07	12.434	-4.844	57.92	0.47	2.178	1.062	-42.76		-0.69	0.000
37.34	12.419	-3.882	57.93	0.47	2.175	1.058	-37.35		-0.69	0.000
37.61	12.400	-2.933	57.95	0.47	2.168	1.056	-39.51		-0.69	0.000
37.89	12.389	-1.971	57.96	0.47	2.165	1.054	-69.81		-0.69	0.000
38.15	12.387	-1.010	57.96	0.47	2.160	1.052	-78.71		-0.69	0.000
38.42	12.384	-0.012	57.97	0.47	2.153	1.050	-55.68		-0.69	0.000
38.68	12.384	0.925	57.97	0.47	2.167	1.050	-32.73		-0.69	0.000
38.94	12.384	1.899	57.97	0.47	2.153	1.048	2.28		-0.69	0.000
39.21	12.384	2.825	57.97	0.47	2.155	1.046	13.20		-0.69	0.000
39.47	12.394	3.762	57.96	0.47	2.156	1.045	47.55		-0.69	0.000
39.74	12.416	4.700	57.93	0.47	2.152	1.045	67.15		-0.69	0.000
40.01	12.444	5.613	57.91	0.47	2.149	1.046	107.71		-0.69	0.000
40.28	12.464	6.526	57.89	0.47	2.146	1.046	134.53		-0.69	0.000
40.54	12.499	7.428	57.85	0.47	2.149	1.047	196.07		-0.69	0.000
40.81	12.539	8.305	57.81	0.47	2.145	1.046	224.53		-0.69	0.000
41.08	12.567	9.159	57.78	0.47	2.149	1.046	203.05		-0.69	0.000
41.35	12.615	9.988	57.74	0.47	2.149	1.046	159.61		-0.69	0.000
41.62	12.667	10.805	57.68	0.47	2.150	1.047	40.53		-0.69	0.000
41.89	12.706	11.587	57.64	0.47	2.144	1.047	-25.41		-0.69	0.000
42.16	12.765	12.356	57.59	0.47	2.154	1.049	-119.08		-0.69	0.000
42.43	12.830	13.077	57.52	0.47	2.157	1.049	-154.33		-0.69	0.000
42.70	12.898	13.774	57.45	0.47	2.151	1.052	-201.87		-0.69	0.000
42.98	12.943	14.423	57.41	0.47	2.156	1.053	-220.13		-0.69	0.000
43.27	13.016	15.048	57.33	0.47	2.153	1.055	-252.02		-0.69	0.000
43.54	13.093	15.649	57.26	0.47	2.160	1.056	-260.88		-0.69	0.000
43.83	13.174	16.226	57.18	0.47	2.166	1.058	-257.96		-0.69	0.000
44.10	13.229	16.719	57.12	0.47	2.166	1.061	-235.29		-0.69	0.000
44.38	13.314	17.200	57.04	0.47	2.177	1.062	-161.78		-0.69	0.000
44.66	13.401	17.596	56.95	0.47	2.179	1.066	-128.12		-0.69	0.000
44.95	13.489	17.969	56.86	0.46	2.187	1.071	-88.49		-0.69	0.000
45.23	13.580	18.293	56.77	0.46	2.192	1.078	-111.82		-0.69	0.000
45.50	13.642	18.570	56.71	0.46	2.208	1.085	-141.62		-0.69	0.000
45.78	13.737	18.774	56.61	0.46	2.231	1.094	-211.66		-0.69	0.000
46.06	13.829	18.930	56.52	0.46	2.244	1.109	-242.07		-0.69	0.000
46.34	13.924	19.050	56.43	0.46	2.268	1.121	-286.43		-0.69	0.000
46.62	14.019	19.099	56.33	0.46	2.289	1.140	-306.34		-0.69	0.000
46.91	14.084	19.111	56.27	0.46	2.318	1.161	-351.62		-0.69	0.000
47.19	14.179	19.063	56.17	0.46	2.354	1.183	-375.44		-0.69	0.000
47.47	14.274	18.954	56.08	0.46	2.382	1.194	-411.23		-0.69	0.000
47.75	14.369	18.798	55.98	0.46	2.427	1.220	-412.45		-0.69	0.000
48.03	14.430	18.594	55.92	0.46	2.464	1.250	-394.65		-0.69	0.000
48.30	14.524	18.329	55.83	0.46	2.520	1.280	-327.82		-0.69	0.000
48.59	14.615	18.017	55.74	0.46	2.565	1.313	-277.66		-0.69	0.000
48.87	14.703	17.668	55.65	0.45	2.626	1.351	-173.59		-0.69	0.000
49.15	14.790	17.248	55.56	0.45	2.685	1.390	-127.89		-0.69	0.000
49.42	14.848	16.791	55.50	0.45	2.741	1.430	-55.66		-0.69	0.000
49.71	14.929	16.286	55.42	0.45	2.808	1.473	-20.49		-0.69	0.000
50.00	15.011	15.745	55.34	0.45	2.878	1.514	51.14		-0.69	0.000
50.28	15.088	15.132	55.26	0.45	2.952	1.562	87.20		-0.69	0.000
50.56	15.161	14.471	55.19	0.45	3.023	1.607	161.71		-0.69	0.000
50.83	15.208	13.798	55.14	0.45	3.091	1.658	220.32		-0.69	0.000
51.12	15.275	13.077	55.07	0.45	3.113	1.708	244.94		-0.69	0.000
51.40	15.339	12.356	55.01	0.45	3.181	1.753	256.85		-0.69	0.000
51.68	15.398	11.538	54.95	0.45	3.239	1.800	241.46		-0.69	0.000
52.00	15.455	10.721	54.90	0.45	3.324	1.842	200.11		-0.69	0.000
52.27	15.505	9.868	54.85	0.45	3.378	1.881	178.60		-0.69	0.000
52.56	15.552	8.858	54.80	0.45	3.404	1.918	178.94		-0.69	0.000
52.83	15.579	7.993	54.77	0.45	3.452	1.954	191.96		-0.69	0.000
53.12	15.616	7.031	54.73	0.45	3.491	1.987	201.15		-0.69	0.000
53.40	15.649	6.118	54.70	0.45	3.528	2.016	216.04		-0.69	0.000
53.67	15.676	5.156	54.67	0.45	3.552	2.041	218.70		-0.69	0.000
53.96	15.698	4.135	54.65	0.45	3.578	2.061	207.83		-0.69	0.000
54.24	15.707	3.185	54.64	0.45	3.592	2.080	188.01		-0.69	0.000
54.52	15.721	2.151	54.63	0.45	3.588	2.092	159.03		-0.69	0.000
54.80	15.726	1.142	54.62	0.45	3.595	2.098	135.41		-0.69	0.000
55.08	15.729	0.132	54.62	0.45	3.585	2.099	114.24		-0.69	0.000
55.36	15.729	-0.865	54.62	0.45	3.578	2.096	46.44		-0.69	0.000
55.64	15.729	-1.875	54.62	0.45	3.561	2.090	-0.02		-0.69	0.000
55.92	15.729	-2.873	54.62	0.45	3.553	2.083	-108.33		-0.69	0.000
56.20	15.715	-3.858	54.64	0.45	3.547	2.077	-154.11		-0.69	0.000
56.48	15.688	-4.844	54.66	0.45	3.536	2.069	-235.56		-0.69	0.000
56.76	15.672	-5.817	54.68	0.45	3.527	2.060	-262.51		-0.69	0.000
57.05	15.640	-6.767	54.71	0.45	3.499	2.053	-286.53		-0.69	0.000
57.32	15.605	-7.704	54.75	0.45	3.486	2.043	-275.99		-0.69	0.000
57.61	15.561	-8.642	54.79	0.45	3.466	2.023	-226.68		-0.69	0.000
57.89	15.516	-9.507	54.83	0.45	3.430	1.997	-166.40		-0.69	0.000
58.17	15.483	-10.397	54.87	0.45	3.395	1.967	-134.07		-0.69	0.000
58.45	15.429	-11.226	54.92	0.45	3.345	1.931	-61.43		-0.69	0.000
58.73	15.372	-12.031	54.98	0.45	3.305	1.891	-14.06		-0.69	0.000
59.01	15.308	-12.800	55.04	0.45	3.290	1.851	75.68		-0.69	0.000
59.29	15.242	-13.534	55.11	0.45	3.273	1.825	114.69		-0.69	0.000
59.56	15.197	-14.219	55.15	0.45	3.247	1.808	179.12		-0.69	0.000
59.84	15.124	-14.880	55.23	0.45	3.191	1.789	198.05		-0.69	0.000
60.13	15.047	-15.469	55.30	0.45	3.141	1.756	182.91		-0.69	0.000
60.41	14.969	-16.034	55.38	0.45	3.080	1.705	90.47		-0.69	0.000
60.68	14.915	-16.587	55.44	0.45	3.030	1.648	30.23		-0.69	0.000
60.97	14.830	-17.055	55.52	0.45	2.982	1.617	-89.15		-0.69	0.000
61.25	14.744	-17.476	55.61	0.45	2.937	1.562	-138.66		-0.69	0.000
61.53	14.656	-17.873	55.69	0.46	2.888	1.514	-232.66		-0.69	0.000
61.81	14.565	-18.209	55.79	0.46	2.867	1.466	-280.85		-0.69	0.000
62.09	14.506	-18.486	55.84	0.46	2.834	1.425	-377.32		-0.69	0.000
62.37	14.411	-18.714	55.94	0.46	2.746	1.386	-413.25		-0.69	0.000
62.65	14.319	-18.894	56.03	0.46	2.690	1.347	-467.21		-0.69	0.000
62.92	14.223	-19.026	56.13	0.46	2.602	1.304	-474.28		-0.69	0.000
63.21	14.126	-19.099	56.22	0.46	2.546	1.266	-460.84		-0.69	0.000
63.49	14.065	-19.111	56.29	0.46	2.491	1.233	-405.81		-0.69	0.000
63.77	13.969	-19.075	56.38	0.46	2.431	1.204	-371.70		-0.69	0.000
64.05	13.873	-18.990	56.48	0.46	2.401	1.179	-301.64		-0.69	0.000
64.33	13.779	-18.846	56.57	0.46	2.350	1.159	-262.80		-0.69	0.000
64.61	13.684	-18.654	56.67	0.46	2.327	1.140	-180.80		-0.69	0.000
64.88	13.624	-18.413	56.73	0.46	2.301	1.128	-138.08		-0.69	0.000
65.16	13.532	-18.113	56.82	0.46	2.278	1.117	-60.21		-0.69	0.000
65.44	13.443	-17.788	56.91	0.47	2.264	1.107	-24.44		-0.69	0.000
65.72	13.355	-17.392	57.00	0.47	2.241	1.098	41.04		-0.69	0.000
66.00	13.298	-16.947	57.05	0.47	2.230	1.092	80.37		-0.69	0.000
66.29	13.214	-16.454	57.14	0.47	2.219	1.085	140.09		-0.69	0.000
66.57	13.133	-15.925	57.22	0.47	2.213	1.082	144.02		-0.69	0.000
66.84	13.055	-15.325	57.30	0.47	2.207	1.077	137.25		-0.69	0.000
67.12	12.980	-14.700	57.37	0.47	2.190	1.071	132.35		-0.69	0.000
67.40	12.933	-14.063	57.42	0.47	2.183	1.066	135.41		-0.69	0.000
67.68	12.865	-13.353	57.49	0.47	2.172	1.060	146.70		-0.69	0.000
67.96	12.798	-12.608	57.55	0.47	2.163	1.055	149.88		-0.69	0.000
68.25	12.737	-11.839	57.61	0.47	2.148	1.051	147.17		-0.69	0.000
68.52	12.680	-11.034	57.67	0.47	2.154	1.048	136.97		-0.69	0.000
68.81	12.646	-10.156	57.70	0.47	2.134	1.044	112.75		-0.69	0.000
69.08	12.596	-9.327	57.75	0.47	2.138	1.042	84.86		-0.69	0.000
69.36	12.552	-8.401	57.80	0.47	2.125	1.040	51.56		-0.69	0.000
69.64	12.514	-7.512	57.84	0.47	2.125	1.036	10.81		-0.69	0.000
69.93	12.491	-6.575	57.86	0.47	2.125	1.033	-15.31		-0.69	0.000
70.21	12.461	-5.625	57.89	0.47	2.117	1.029	-86.77		-0.69	0.000
70.48	12.435	-4.615	57.91	0.47	2.109	1.026	-135.13		-0.69	0.000
70.77	12.416	-3.630	57.93	0.47	2.105	1.025	-240.80		-0.69	0.000
71.04	12.405	-2.668	57.95	0.47	2.108	1.024	-286.33		-0.69	0.000
71.32	12.397	-1.635	57.95	0.47	2.104	1.024	-342.35		-0.69	0.000
71.60	12.392	-0.661	57.96	0.47	2.101	1.023	-362.69		-0.69	0.000
71.88	12.392	0.337	57.96	0.47	2.098	1.022	-372.82		-0.69	0.000
72.16	12.392	1.346	57.96	0.47	2.097	1.021	-337.90		-0.69	0.000
72.44	12.392	2.356	57.96	0.47	2.098	1.019	-306.60		-0.69	0.000
72.72	12.393	3.353	57.96	0.47	2.092	1.019	-254.77		-0.69	0.000
73.00	12.416	4.339	57.93	0.47	2.096	1.019	-245.98		-0.69	0.000
73.28	12.442	5.313	57.91	0.47	2.094	1.018	-226.15		-0.69	0.000
73.56	12.471	6.274	57.88	0.47	2.094	1.018	-203.90		-0.69	0.000
73.84	12.494	7.224	57.86	0.47	2.093	1.016	-133.76		-0.69	0.000
74.12	12.533	8.149	57.82	0.47	2.094	1.017	-98.10		-0.69	0.000
74.40	12.578	9.050	57.77	0.47	2.091	1.018	-33.80		-0.69	0.000
74.68	12.625	9.928	57.72	0.47	2.092	1.019	-10.91		-0.69	0.000
74.96	12.676	10.769	57.67	0.47	2.097	1.020	2.26		-0.69	0.000
75.24	12.714	11.587	57.64	0.47	2.091	1.020	-26.41		-0.69	0.000
75.52	12.773	12.380	57.58	0.47	2.099	1.020	-44.30		-0.69	0.000
75.80	12.837	13.125	57.51	0.47	2.099	1.020	-54.23		-0.69	0.000
76.08	12.903	13.846	57.45	0.47	2.098	1.020	-41.22		-0.69	0.000
76.37	12.978	14.519	57.37	0.47	2.105	1.022	-20.71		-0.69	0.000
76.64	13.026	15.156	57.32	0.47	2.104	1.025	-18.95		-0.69	0.000
76.92	13.103	15.769	57.25	0.47	2.111	1.026	-30.46		-0.69	0.000
77.20	13.183	16.298	57.17	0.47	2.112	1.028	-45.60		-0.69	0.000
77.48	13.265	16.803	57.09	0.47	2.113	1.030	-93.97		-0.69	0.000
77.76	13.323	17.260	57.03	0.47	2.122	1.031	-124.11		-0.69	0.000
78.04	13.411	17.668	56.94	0.47	2.123	1.036	-164.76		-0.69	0.000
78.32	13.501	18.029	56.85	0.46	2.134	1.040	-185.89		-0.70	0.000
78.60	13.590	18.341	56.76	0.46	2.139	1.044	-184.60		-0.70	0.000
78.89	13.683	18.594	56.67	0.46	2.158	1.050	-172.82		-0.70	0.000
79.17	13.744	18.798	56.61	0.46	2.169	1.059	-163.69		-0.70	0.000
79.46	13.838	18.966	56.51	0.46	2.194	1.071	-141.99		-0.70	0.000
79.73	13.934	19.063	56.42	0.46	2.218	1.081	-145.78		-0.70	0.000
80.02	14.030	19.111	56.32	0.46	2.242	1.096	-157.71		-0.70	0.000
80.29	14.125	19.099	56.22	0.46	2.273	1.116	-153.17		-0.70	0.000
80.58	14.190	19.038	56.16	0.46	2.290	1.135	-97.97		-0.70	0.000
80.86	14.283	18.930	56.07	0.46	2.319	1.156	-4.17		-0.70	0.000
81.14	14.376	18.762	55.97	0.46	2.357	1.180	25.85		-0.70	0.000
81.41	14.472	18.546	55.88	0.46	2.393	1.210	44.61		-0.70	0.000
81.69	14.564	18.269	55.79	0.46	2.442	1.236	29.39		-0.70	0.000
81.97	14.624	17.957	55.73	0.46	2.489	1.268	-18.78		-0.70	0.000
82.25	14.714	17.584	55.64	0.45	2.542	1.306	-50.51		-0.70	0.000
82.54	14.798	17.175	55.55	0.45	2.597	1.343	-97.72		-0.70	0.000
82.82	14.884	16.707	55.47	0.45	2.655	1.381	-119.75		-0.70	0.000
83.10	14.965	16.166	55.39	0.45	2.715	1.420	-170.43		-0.70	0.000
83.38	15.020	15.613	55.33	0.45	2.785	1.466	-240.78		-0.70	0.000
83.65	15.096	15.000	55.25	0.45	2.848	1.486	-270.47		-0.70	0.000
83.94	15.169	14.363	55.18	0.45	2.916	1.529	-287.88		-0.70	0.000
84.22	15.238	13.702	55.11	0.45	2.974	1.574	-273.11		-0.70	0.000
84.50	15.283	12.957	55.07	0.45	3.034	1.619	-210.50		-0.70	0.000
84.78	15.346	12.188	55.00	0.45	3.097	1.662	-188.96		-0.70	0.000
85.06	15.405	11.394	54.95	0.45	3.116	1.707	-166.21		-0.70	0.000
85.34	15.458	10.577	54.89	0.45	3.180	1.746	-168.78		-0.70	0.000
85.62	15.508	9.712	54.84	0.45	3.232	1.786	-143.47		-0.70	0.000
85.89	15.540	8.834	54.81	0.45	3.282	1.827	-123.39		-0.70	0.000
86.18	15.583	7.933	54.77	0.45	3.330	1.862	-67.13		-0.70	0.000
86.45	15.620	7.031	54.73	0.45	3.368	1.900	-31.91		-0.70	0.000
86.74	15.651	6.046	54.70	0.45	3.403	1.933	-29.19		-0.70	0.000
87.02	15.678	5.120	54.67	0.45	3.429	1.959	-65.63		-0.70	0.000
87.30	15.690	4.099	54.66	0.45	3.454	1.980	-88.14		-0.70	0.000
87.59	15.710	3.113	54.64	0.45	3.463	1.999	-101.28		-0.70	0.000
87.86	15.719	2.115	54.63	0.45	3.484	2.013	-91.90		-0.70	0.000
88.14	15.728	1.070	54.62	0.45	3.474	2.021	-52.11		-0.70	0.000
88.42	15.729	0.096	54.62	0.45	3.467	2.023	-38.60		-0.70	0.000
88.70	15.729	-0.901	54.62	0.45	3.458	2.020	-23.11		-0.70	0.000
88.98	15.729	-1.899	54.62	0.45	3.458	2.016	-6.44		-0.70	0.000
89.26	15.729	-2.909	54.62	0.45	3.442	2.009	5.78		-0.70	0.000
89.54	15.712	-3.894	54.64	0.45	3.437	2.007	23.82		-0.70	0.000
89.83	15.696	-4.880	54.65	0.45	3.434	2.001	27.65		-0.70	0.000
90.10	15.667	-5.853	54.68	0.45	3.420	1.993	35.01		-0.70	0.000
90.38	15.635	-6.839	54.71	0.45	3.411	1.988	37.94		-0.70	0.000
90.66	15.599	-7.728	54.75	0.45	3.380	1.976	26.42		-0.70	0.000
90.95	15.557	-8.642	54.79	0.45	3.358	1.954	17.87		-0.70	0.000
91.23	15.528	-9.531	54.82	0.45	3.326	1.930	7.54		-0.70	0.000
91.51	15.476	-10.421	54.87	0.45	3.288	1.901	5.43		-0.70	0.000
91.79	15.422	-11.250	54.93	0.45	3.244	1.867	-3.22		-0.70	0.000
92.07	15.365	-12.055	54.99	0.45	3.197	1.825	-29.90		-0.70	0.000
92.35	15.302	-12.825	55.05	0.45	3.165	1.783	-40.18		-0.70	0.000
92.62	15.258	-13.546	55.09	0.45	3.139	1.740	-32.40		-0.70	0.000
92.90	15.189	-14.243	55.16	0.45	3.129	1.706	-18.46		-0.70	0.000
93.19	15.116	-14.868	55.23	0.45	3.095	1.687	-10.62		-0.70	0.000
93.47	15.040	-15.481	55.31	0.45	3.046	1.664	-22.36		-0.70	0.000
93.75	14.960	-16.070	55.39	0.45	2.996	1.628	-61.36		-0.70	0.000
94.03	14.906	-16.599	55.44	0.45	2.941	1.579	-84.59		-0.70	0.000
94.31	14.822	-17.079	55.53	0.45	2.897	1.528	-106.48		-0.70	0.000
94.58	14.734	-17.500	55.62	0.45	2.877	1.476	-106.56		-0.70	0.000
94.87	14.647	-17.885	55.70	0.46	2.832	1.429	-96.42		-0.70	0.000
95.15	14.587	-18.209	55.76	0.46	2.791	1.411	-85.99		-0.70	0.000
95.43	14.494	-18.498	55.86	0.46	2.755	1.375	-84.98		-0.70	0.000
95.71	14.402	-18.726	55.95	0.46	2.671	1.344	-110.32		-0.70	0.000
95.99	14.307	-18.906	56.04	0.46	2.599	1.309	-126.24		-0.70	0.000
96.27	14.214	-19.026	56.14	0.46	2.525	1.270	-141.03		-0.70	0.000
96.54	14.149	-19.099	56.20	0.46	2.462	1.234	-135.22		-0.70	0.000
96.83	14.053	-19.111	56.30	0.46	2.409	1.196	-126.60		-0.70	0.000
97.11	13.957	-19.075	56.39	0.46	2.351	1.166	-122.51		-0.70	0.000
97.39	13.864	-18.990	56.49	0.46	2.312	1.138	-134.16		-0.70	0.000
97.67	13.769	-18.846	56.58	0.46	2.271	1.120	-164.75		-0.70	0.000
97.96	13.707	-18.654	56.64	0.46	2.248	1.102	-193.71		-0.70	0.000
98.24	13.614	-18.401	56.74	0.46	2.230	1.088	-229.98		-0.70	0.000
98.51	13.521	-18.101	56.83	0.46	2.201	1.077	-225.10		-0.70	0.000
98.80	13.433	-17.752	56.92	0.47	2.191	1.067	-178.85		-0.70	0.000
99.08	13.344	-17.368	57.01	0.47	2.174	1.058	-145.46		-0.70	0.000
99.35	13.288	-16.899	57.06	0.47	2.163	1.051	-110.61		-0.70	0.000
99.64	13.206	-16.406	57.14	0.47	2.154	1.044	-102.22		-0.70	0.000
99.93	13.125	-15.889	57.22	0.47	2.139	1.038	-81.88		-0.70	0.000
100.21	13.046	-15.276	57.30	0.47	2.134	1.033	-88.47		-0.70	0.000
100.48	12.973	-14.627	57.38	0.47	2.125	1.029	-99.08		-0.70	0.000
100.75	12.924	-13.966	57.43	0.47	2.120	1.023	-116.82		-0.70	0.000
101.03	12.857	-13.281	57.49	0.47	2.114	1.022	-121.68		-0.70	0.000
101.30	12.792	-12.560	57.56	0.47	2.104	1.017	-144.73		-0.70	0.000
101.58	12.749	-11.803	57.60	0.47	2.106	1.014	-159.67		-0.70	0.000
101.86	12.693	-11.010	57.66	0.47	2.098	1.012	-186.24		-0.70	0.000
102.14	12.642	-10.168	57.71	0.47	2.087	1.009	-188.86		-0.70	0.000
102.41	12.593	-9.303	57.76	0.47	2.089	1.006	-154.09		-0.70	0.000
102.68	12.564	-8.425	57.79	0.47	2.081	1.003	-138.96		-0.70	0.000
102.95	12.523	-7.536	57.83	0.47	2.082	1.002	-103.22		-0.70	0.000
103.23	12.488	-6.611	57.86	0.47	2.081	1.002	-80.64		-0.70	0.000
103.50	12.460	-5.685	57.89	0.47	2.076	1.000	-12.27		-0.70	0.000
103.77	12.442	-4.736	57.91	0.47	2.074	0.999	33.50		-0.70	0.000
104.03	12.424	-3.798	57.93	0.47	2.074	0.996	116.97		-0.70	0.000
104.30	12.405	-2.837	57.95	0.47	2.068	0.994	155.70		-0.70	0.000
104.57	12.401	-1.875	57.95	0.47	2.071	0.993	160.64		-0.70	0.000
104.83	12.392	-0.913	57.96	0.47	2.069	0.992	149.94		-0.70	0.000
105.10	12.392	0.036	57.96	0.47	2.064	0.993	120.58		-0.70	0.000
105.36	12.392	0.974	57.96	0.47	2.066	0.994	105.90		-0.70	0.000
105.63	12.392	1.935	57.96	0.47	2.071	0.995	92.29		-0.70	0.000
105.89	12.392	2.885	57.96	0.47	2.068	0.995	81.77		-0.70	0.000
106.16	12.410	3.834	57.94	0.47	2.060	0.993	70.54		-0.70	0.000
106.42	12.432	4.760	57.92	0.47	2.068	0.993	59.68		-0.70	0.000
106.68	12.450	5.673	57.90	0.47	2.060	0.992	57.33		-0.70	0.000
106.95	12.482	6.587	57.87	0.47	2.068	0.993	55.16		-0.70	0.000
107.22	12.516	7.452	57.83	0.47	2.070	0.995	54.61		-0.70	0.000
107.49	12.544	8.341	57.81	0.47	2.069	0.995	44.75		-0.70	0.000
107.75	12.587	9.183	57.76	0.47	2.065	0.996	26.51		-0.70	0.000
108.02	12.635	10.024	57.71	0.47	2.064	0.996	-26.22		-0.70	0.000
108.29	12.670	10.805	57.68	0.47	2.071	0.996	-48.48		-0.70	0.000
108.55	12.726	11.599	57.62	0.47	2.066	0.996	-56.06		-0.70	0.000
108.82	12.787	12.356	57.56	0.47	2.071	0.998	-44.14		-0.70	0.000
109.09	12.828	13.077	57.52	0.47	2.067	0.999	-17.22		-0.70	0.000
109.36	12.894	13.762	57.46	0.47	2.073	0.999	-29.05		-0.70	0.000
109.63	12.966	14.411	57.38	0.47	2.075	1.000	-94.22		-0.70	0.000
109.91	13.015	15.036	57.34	0.47	2.078	1.001	-141.86		-0.70	0.000
110.17	13.092	15.625	57.26	0.47	2.080	1.004	-197.41		-0.70	0.000
110.45	13.171	16.166	57.18	0.47	2.080	1.007	-182.51		-0.70	0.000
110.71	13.226	16.659	57.12	0.47	2.084	1.008	-96.85		-0.70	0.000
110.98	13.311	17.115	57.04	0.47	2.090	1.010	-42.96		-0.70	0.000
111.25	13.398	17.524	56.95	0.47	2.097	1.013	-6.53		-0.70	0.000
111.52	13.457	17.897	56.89	0.47	2.100	1.015	-19.02		-0.70	0.000
111.78	13.546	18.209	56.80	0.46	2.107	1.020	-88.28		-0.70	0.000
112.05	13.637	18.474	56.71	0.46	2.114	1.024	-131.83		-0.70	0.000
112.32	13.701	18.702	56.65	0.46	2.127	1.030	-162.05		-0.70	0.000
112.59	13.796	18.870	56.55	0.46	2.144	1.040	-163.88		-0.70	0.000
112.87	13.888	19.002	56.46	0.46	2.171	1.054	-172.11		-0.70	0.000
113.14	13.952	19.087	56.40	0.46	2.184	1.068	-197.26		-0.70	0.000
113.41	14.048	19.111	56.30	0.46	2.212	1.084	-286.15		-0.70	0.000
113.68	14.144	19.099	56.21	0.46	2.243	1.091	-332.11		-0.70	0.000
113.95	14.206	19.026	56.14	0.46	2.252	1.109	-376.05		-0.70	0.000
114.22	14.302	18.906	56.05	0.46	2.286	1.131	-418.85		-0.70	0.000
114.50	14.396	18.738	55.95	0.46	2.319	1.155	-437.40		-0.70	0.000
114.76	14.488	18.522	55.86	0.46	2.358	1.180	-430.80		-0.70	0.000
115.03	14.549	18.245	55.80	0.46	2.404	1.206	-415.66		-0.70	0.000
115.30	14.640	17.945	55.71	0.46	2.445	1.240	-390.20		-0.70	0.000
115.57	14.730	17.584	55.62	0.45	2.501	1.275	-370.76		-0.70	0.000
115.84	14.787	17.175	55.56	0.45	2.558	1.309	-312.08		-0.70	0.000
116.11	14.872	16.731	55.48	0.45	2.581	1.328	-272.85		-0.70	0.000
116.38	14.953	16.250	55.40	0.45	2.642	1.364	-172.67		-0.70	0.000
116.65	15.008	15.709	55.34	0.45	2.701	1.405	-132.87		-0.70	0.000
116.93	15.084	15.120	55.27	0.45	2.769	1.447	-78.79		-0.70	0.000
117.19	15.160	14.507	55.19	0.45	2.839	1.490	-59.57		-0.70	0.000
117.46	15.206	13.834	55.14	0.45	2.891	1.534	-21.02		-0.70	0.000
117.73	15.274	13.161	55.08	0.45	2.958	1.576	-5.67		-0.70	0.000
118.00	15.337	12.440	55.01	0.45	3.013	1.620	18.66		-0.70	0.000
118.26	15.378	11.707	54.97	0.45	3.042	1.640	25.90		-0.70	0.000
118.53	15.434	10.913	54.92	0.45	3.107	1.682	33.62		-0.70	0.000
118.79	15.487	10.132	54.86	0.45	3.148	1.724	35.61		-0.70	0.000
119.06	15.520	9.303	54.83	0.45	3.204	1.762	37.30		-0.70	0.000
119.32	15.563	8.462	54.79	0.45	3.251	1.801	32.09		-0.70	0.000
119.59	15.603	7.584	54.75	0.45	3.300	1.839	27.33		-0.70	0.000
119.86	15.626	6.695	54.72	0.45	3.315	1.871	36.37		-0.70	0.000
120.13	15.656	5.781	54.69	0.45	3.348	1.888	70.70		-0.70	0.000
120.40	15.684	4.868	54.67	0.45	3.379	1.918	93.57		-0.70	0.000
120.67	15.698	3.930	54.65	0.45	3.400	1.938	115.84		-0.70	0.000
120.94	15.713	2.945	54.64	0.45	3.416	1.958	112.80		-0.70	0.000
121.20	15.724	1.983	54.63	0.45	3.421	1.971	108.40		-0.70	0.000
121.46	15.726	1.034	54.62	0.45	3.417	1.980	110.81		-0.70	0.000
121.73	15.734	0.084	54.62	0.45	3.419	1.984	131.78		-0.70	0.000
122.00	15.734	-0.865	54.62	0.45	3.416	1.986	127.89		-0.70	0.000
122.27	15.734	-1.803	54.62	0.45	3.414	1.984	94.97		-0.70	0.000
122.53	15.731	-2.776	54.62	0.45	3.404	1.983	66.02		-0.70	0.000
122.80	15.713	-3.738	54.64	0.45	3.400	1.978	30.52		-0.70	0.000
123.07	15.698	-4.663	54.65	0.45	3.389	1.970	-55.45		-0.70	0.000
123.35	15.672	-5.589	54.68	0.45	3.383	1.965	-102.20		-0.70	0.000
123.63	15.640	-6.526	54.71	0.45	3.371	1.959	-184.08		-0.70	0.000
123.90	15.607	-7.440	54.74	0.45	3.340	1.946	-214.43		-0.70	0.000
124.17	15.579	-8.353	54.77	0.45	3.322	1.928	-229.25		-0.70	0.000
124.46	15.535	-9.231	54.81	0.45	3.284	1.916	-272.13		-0.70	0.000
124.72	15.485	-10.084	54.86	0.45	3.254	1.884	-301.56		-0.70	0.000
125.00	15.453	-10.950	54.90	0.45	3.209	1.851	-338.79		-0.70	0.000
125.27	15.396	-11.719	54.95	0.45	3.165	1.816	-335.65		-0.70	0.000
125.54	15.334	-12.476	55.02	0.45	3.121	1.775	-298.01		-0.70	0.000
125.81	15.270	-13.209	55.08	0.45	3.084	1.731	-272.97		-0.70	0.000
126.08	15.224	-13.894	55.13	0.45	3.074	1.686	-229.03		-0.70	0.000
126.35	15.155	-14.543	55.20	0.45	3.070	1.659	-219.39		-0.70	0.000
126.63	15.079	-15.156	55.27	0.45	3.037	1.640	-233.99		-0.70	0.000
126.90	15.029	-15.733	55.32	0.45	2.990	1.616	-255.59		-0.70	0.000
127.18	14.948	-16.274	55.40	0.45	2.944	1.597	-291.54		-0.70	0.000
127.45	14.866	-16.767	55.48	0.45	2.896	1.550	-301.80		-0.70	0.000
127.72	14.779	-17.224	55.57	0.45	2.847	1.500	-313.01		-0.70	0.000
128.00	14.724	-17.620	55.63	0.45	2.810	1.453	-312.40		-0.70	0.000
128.26	14.633	-17.981	55.72	0.46	2.764	1.414	-333.08		-0.70	0.000
128.53	14.543	-18.293	55.81	0.46	2.737	1.378	-343.81		-0.70	0.000
128.81	14.481	-18.546	55.87	0.46	2.710	1.349	-349.09		-0.70	0.000
129.08	14.387	-18.762	55.96	0.46	2.622	1.313	-349.27		-0.70	0.000
129.35	14.294	-18.918	56.06	0.46	2.554	1.271	-326.54		-0.70	0.000
129.63	14.198	-19.038	56.15	0.46	2.470	1.231	-315.55		-0.70	0.000
129.90	14.134	-19.099	56.22	0.46	2.419	1.213	-299.36		-0.70	0.000
130.17	14.039	-19.111	56.31	0.46	2.359	1.178	-303.90		-0.70	0.000
130.45	13.944	-19.075	56.41	0.46	2.302	1.152	-295.70		-0.70	0.000
130.72	13.880	-18.990	56.47	0.46	2.267	1.125	-275.60		-0.70	0.000
131.00	13.785	-18.846	56.56	0.46	2.226	1.105	-220.41		-0.70	0.000
131.27	13.693	-18.654	56.66	0.46	2.210	1.088	-187.05		-0.70	0.000
131.55	13.601	-18.413	56.75	0.46	2.192	1.070	-140.81		-0.70	0.000
131.82	13.539	-18.125	56.81	0.46	2.166	1.059	-130.63		-0.70	0.000
132.09	13.449	-17.788	56.90	0.47	2.154	1.048	-110.42		-0.70	0.000
132.36	13.362	-17.404	56.99	0.47	2.132	1.035	-111.04		-0.70	0.000
132.64	13.275	-16.971	57.07	0.47	2.131	1.033	-125.19		-0.70	0.000
132.92	13.220	-16.502	57.13	0.47	2.111	1.026	-138.75		-0.70	0.000
133.20	13.138	-15.974	57.21	0.47	2.102	1.020	-180.46		-0.70	0.000
133.46	13.061	-15.409	57.29	0.47	2.094	1.016	-212.11		-0.70	0.000
133.74	13.010	-14.796	57.34	0.47	2.088	1.011	-300.00		-0.70	0.000
134.01	12.938	-14.159	57.41	0.47	2.078	1.007	-351.19		-0.70	0.000
134.29	12.867	-13.474	57.48	0.47	2.070	1.004	-467.57		-0.70	0.000
134.55	12.805	-12.764	57.55	0.47	2.067	1.001	-523.76		-0.70	0.000
134.83	12.761	-12.007	57.59	0.47	2.056	0.999	-631.50		-0.70	0.000
135.10	12.703	-11.238	57.65	0.47	2.057	0.996	-661.55		-0.70	0.000
135.38	12.649	-10.421	57.70	0.47	2.053	0.988	-676.59		-0.70	0.000
135.64	12.616	-9.603	57.73	0.47	2.050	0.987	-673.49		-0.70	0.000
135.92	12.570	-8.714	57.78	0.47	2.053	0.987	-667.22		-0.70	0.000
136.19	12.529	-7.849	57.82	0.47	2.044	0.982	-664.07		-0.70	0.000
136.47	12.493	-6.935	57.86	0.47	2.042	0.980	-635.50		-0.70	0.000
136.74	12.469	-6.010	57.88	0.47	2.040	0.979	-569.02		-0.70	0.000
137.01	12.443	-5.072	57.91	0.47	2.038	0.978	-537.14		-0.70	0.000
137.29	12.421	-4.111	57.93	0.47	2.032	0.978	-461.00		-0.70	0.000
137.56	12.411	-3.137	57.94	0.47	2.029	0.978	-420.24		-0.70	0.000
137.83	12.401	-2.175	57.95	0.47	2.039	0.977	-349.21		-0.70	0.000
138.09	12.392	-1.190	57.96	0.47	2.035	0.976	-331.67		-0.70	0.000
138.36	12.389	-0.228	57.96	0.47	2.034	0.976	-325.46		-0.70	0.000
138.63	12.389	0.733	57.96	0.47	2.037	0.978	-319.51		-0.70	0.000
138.90	12.389	1.695	57.96	0.47	2.035	0.978	-301.43		-0.70	0.000
139.16	12.389	2.656	57.96	0.47	2.037	0.978	-252.05		-0.70	0.000
139.43	12.400	3.594	57.95	0.47	2.035	0.978	-229.55		-0.70	0.000
139.70	12.421	4.531	57.93	0.47	2.041	0.978	-209.21		-0.70	0.000
139.97	12.446	5.469	57.90	0.47	2.039	0.978	-194.16		-0.70	0.000
140.25	12.466	6.394	57.88	0.47	2.040	0.979	-199.72		-0.70	0.000
140.52	12.502	7.308	57.85	0.47	2.027	0.978	-203.50		-0.70	0.000
140.79	12.542	8.209	57.81	0.47	2.029	0.978	-199.91		-0.70	0.000
141.06	12.569	9.087	57.78	0.47	2.033	0.979	-179.23		-0.70	0.000
141.33	12.617	9.940	57.73	0.47	2.032	0.979	-99.05		-0.70	0.000
141.60	12.669	10.757	57.68	0.47	2.036	0.978	-52.45		-0.70	0.000
141.87	12.706	11.550	57.64	0.47	2.032	0.979	-6.54		-0.70	0.000
142.14	12.765	12.308	57.59	0.47	2.042	0.981	-10.32		-0.70	0.000
142.40	12.829	13.029	57.52	0.47	2.041	0.981	-48.72		-0.70	0.000
142.67	12.873	13.714	57.48	0.47	2.038	0.981	-79.12		-0.70	0.000
142.94	12.943	14.363	57.41	0.47	2.040	0.982	-131.36		-0.70	0.000
143.21	13.016	14.988	57.33	0.47	2.041	0.983	-147.09		-0.70	0.000
143.49	13.067	15.577	57.28	0.47	2.048	0.985	-176.55		-0.70	0.000
143.76	13.147	16.118	57.20	0.47	2.052	0.986	-190.55		-0.70	0.000
144.03	13.230	16.623	57.12	0.47	2.049	0.988	-208.69		-0.70	0.000
144.29	13.314	17.079	57.04	0.47	2.061	0.992	-209.83		-0.70	0.000
144.57	13.370	17.500	56.98	0.47	2.065	0.995	-194.27		-0.70	0.000
144.84	13.460	17.861	56.89	0.47	2.070	0.997	-168.29		-0.70	0.000
145.11	13.548	18.185	56.80	0.46	2.079	1.004	-121.36		-0.70	0.000
145.37	13.610	18.462	56.74	0.46	2.079	1.007	-95.07		-0.70	0.000
145.65	13.702	18.690	56.65	0.46	2.097	1.013	-44.49		-0.70	0.000
145.92	13.798	18.870	56.55	0.46	2.113	1.023	-22.68		-0.70	0.000
146.19	13.858	19.002	56.49	0.46	2.140	1.033	1.78		-0.70	0.000
146.46	13.955	19.087	56.40	0.46	2.157	1.046	-3.51		-0.70	0.000
146.73	14.051	19.111	56.30	0.46	2.173	1.063	-22.14		-0.70	0.000
147.00	14.114	19.099	56.24	0.46	2.202	1.073	-42.85		-0.70	0.000
147.27	14.210	19.026	56.14	0.46	2.227	1.089	-93.59		-0.70	0.000
147.54	14.305	18.906	56.05	0.46	2.262	1.111	-118.82		-0.70	0.000
147.81	14.367	18.750	55.98	0.46	2.294	1.135	-151.49		-0.70	0.000
148.08	14.460	18.522	55.89	0.46	2.339	1.163	-146.04		-0.70	0.000
148.35	14.552	18.269	55.80	0.46	2.380	1.191	-117.84		-0.70	0.000
148.62	14.642	17.957	55.71	0.46	2.427	1.223	-91.94		-0.70	0.000
148.88	14.701	17.608	55.65	0.45	2.454	1.257	-38.41		-0.70	0.000
149.16	14.788	17.200	55.56	0.45	2.502	1.272	-1.47		-0.70	0.000
149.42	14.874	16.767	55.48	0.45	2.554	1.310	60.88		-0.70	0.000
149.69	14.929	16.262	55.42	0.45	2.619	1.350	80.27		-0.70	0.000
149.95	15.010	15.745	55.34	0.45	2.681	1.390	106.79		-0.70	0.000
150.23	15.085	15.168	55.26	0.45	2.739	1.429	119.89		-0.70	0.000
150.50	15.137	14.579	55.21	0.45	2.810	1.470	139.69		-0.70	0.000
150.76	15.206	13.930	55.14	0.45	2.844	1.514	137.38		-0.70	0.000
151.03	15.274	13.233	55.08	0.45	2.897	1.559	113.64		-0.70	0.000
151.29	15.319	12.548	55.03	0.45	2.958	1.578	103.82		-0.70	0.000
151.56	15.378	11.779	54.97	0.45	3.017	1.619	100.94		-0.70	0.000
151.83	15.417	11.034	54.93	0.45	3.076	1.659	104.01		-0.70	0.000
152.09	15.470	10.228	54.88	0.45	3.124	1.701	105.22		-0.70	0.000
152.36	15.517	9.399	54.83	0.45	3.149	1.740	116.64		-0.70	0.000
152.63	15.549	8.570	54.80	0.45	3.199	1.776	135.11		-0.70	0.000
152.90	15.589	7.680	54.76	0.45	3.247	1.815	178.23		-0.70	0.000
153.17	15.624	6.803	54.73	0.45	3.286	1.832	195.50		-0.70	0.000
153.44	15.647	5.877	54.70	0.45	3.324	1.864	219.97		-0.70	0.000
153.71	15.674	4.940	54.68	0.45	3.344	1.893	224.12		-0.70	0.000
153.98	15.696	3.978	54.65	0.45	3.370	1.918	202.03		-0.70	0.000
154.25	15.708	3.029	54.64	0.45	3.373	1.940	175.53		-0.70	0.000
154.52	15.716	2.055	54.63	0.45	3.385	1.954	114.36		-0.70	0.000
154.78	15.724	1.118	54.63	0.45	3.395	1.961	83.48		-0.70	0.000
155.04	15.726	0.144	54.62	0.45	3.376	1.963	45.87		-0.70	0.000
155.31	15.726	-0.793	54.62	0.45	3.383	1.963	31.23		-0.70	0.000
155.58	15.726	-1.743	54.62	0.45	3.366	1.960	-2.77		-0.70	0.000
155.85	15.726	-2.704	54.62	0.45	3.363	1.956	-33.16		-0.70	0.000
156.12	15.717	-3.654	54.63	0.45	3.368	1.948	-117.87		-0.70	0.000
156.39	15.696	-4.591	54.65	0.45	3.353	1.945	-157.89		-0.70	0.000
156.66	15.667	-5.541	54.68	0.45	3.350	1.940	-217.04		-0.70	0.000
156.94	15.648	-6.478	54.70	0.45	3.336	1.934	-230.77		-0.70	0.000
157.21	15.612	-7.380	54.74	0.45	3.311	1.927	-253.75		-0.70	0.000
157.48	15.572	-8.293	54.78	0.45	3.290	1.904	-263.58		-0.70	0.000
157.76	15.530	-9.159	54.82	0.45	3.263	1.893	-273.67		-0.70	0.000
158.03	15.497	-10.012	54.85	0.45	3.220	1.865	-281.93		-0.70	0.000
158.31	15.446	-10.841	54.90	0.45	3.187	1.835	-286.58		-0.70	0.000
158.58	15.388	-11.635	54.96	0.45	3.138	1.799	-298.20		-0.70	0.000
158.85	15.348	-12.416	55.00	0.45	3.111	1.759	-298.53		-0.70	0.000
159.13	15.285	-13.149	55.06	0.45	3.068	1.715	-287.38		-0.70	0.000
159.41	15.216	-13.834	55.13	0.45	3.034	1.664	-225.61		-0.70	0.000
159.68	15.146	-14.507	55.20	0.45	3.025	1.621	-184.87		-0.70	0.000
159.95	15.096	-15.132	55.25	0.45	3.007	1.593	-109.58		-0.70	0.000
160.22	15.019	-15.709	55.33	0.45	2.974	1.575	-87.50		-0.70	0.000
160.50	14.940	-16.238	55.41	0.45	2.921	1.565	-81.45		-0.70	0.000
160.77	14.885	-16.743	55.46	0.45	2.868	1.529	-86.27		-0.70	0.000
161.04	14.801	-17.200	55.55	0.45	2.833	1.489	-99.61		-0.70	0.000
161.31	14.714	-17.596	55.64	0.45	2.807	1.442	-104.04		-0.70	0.000
161.59	14.625	-17.957	55.72	0.46	2.774	1.405	-92.10		-0.70	0.000
161.86	14.564	-18.269	55.79	0.46	2.735	1.371	-95.67		-0.70	0.000
162.13	14.471	-18.534	55.88	0.46	2.686	1.340	-130.02		-0.70	0.000
162.41	14.378	-18.750	55.97	0.46	2.603	1.312	-169.18		-0.70	0.000
162.68	14.316	-18.918	56.03	0.46	2.531	1.272	-257.72		-0.70	0.000
162.95	14.220	-19.038	56.13	0.46	2.448	1.232	-297.43		-0.70	0.000
163.22	14.124	-19.099	56.23	0.46	2.392	1.214	-351.30		-0.70	0.000
163.50	14.029	-19.111	56.32	0.46	2.328	1.177	-368.20		-0.70	0.000
163.77	13.966	-19.075	56.38	0.46	2.301	1.148	-407.11		-0.70	0.000
164.04	13.871	-18.990	56.48	0.46	2.263	1.120	-416.88		-0.70	0.000
164.32	13.776	-18.846	56.57	0.46	2.223	1.101	-423.41		-0.70	0.000
164.59	13.715	-18.666	56.64	0.46	2.201	1.081	-407.78		-0.70	0.000
164.86	13.621	-18.425	56.73	0.46	2.170	1.066	-366.70		-0.70	0.000
165.14	13.529	-18.137	56.82	0.46	2.146	1.053	-349.42		-0.70	0.000
165.41	13.440	-17.800	56.91	0.47	2.140	1.039	-340.58		-0.70	0.000
165.68	13.380	-17.416	56.97	0.47	2.118	1.032	-350.40		-0.70	0.000
165.95	13.294	-16.995	57.06	0.47	2.111	1.027	-344.02		-0.70	0.000
166.23	13.212	-16.538	57.14	0.47	2.100	1.019	-299.44		-0.70	0.000
166.50	13.157	-16.022	57.19	0.47	2.088	1.011	-262.62		-0.70	0.000
166.77	13.079	-15.457	57.27	0.47	2.085	1.006	-198.77		-0.70	0.000
167.05	13.002	-14.856	57.35	0.47	2.072	1.001	-173.92		-0.70	0.000
167.32	12.929	-14.219	57.42	0.47	2.067	0.998	-144.00		-0.70	0.000
167.59	12.883	-13.534	57.47	0.47	2.062	0.995	-132.44		-0.70	0.000
167.86	12.817	-12.825	57.53	0.47	2.057	0.992	-95.09		-0.70	0.000
168.13	12.755	-12.091	57.60	0.47	2.052	0.989	-54.93		-0.70	0.000
168.40	12.716	-11.310	57.63	0.47	2.049	0.985	45.18		-0.70	0.000
168.68	12.661	-10.505	57.69	0.47	2.042	0.984	90.11		-0.70	0.000
168.95	12.611	-9.688	57.74	0.47	2.038	0.980	148.19		-0.70	0.000
169.21	12.565	-8.822	57.79	0.47	2.038	0.978	160.30		-0.70	0.000
169.49	12.537	-7.957	57.81	0.47	2.032	0.977	148.73		-0.70	0.000
169.76	12.499	-7.067	57.85	0.47	2.033	0.977	121.45		-0.70	0.000
170.03	12.467	-6.142	57.88	0.47	2.024	0.973	66.86		-0.70	0.000
170.30	12.450	-5.192	57.90	0.47	2.021	0.970	41.73		-0.70	0.000
170.57	12.428	-4.255	57.92	0.47	2.021	0.968	7.32		-0.70	0.000
170.84	12.408	-3.305	57.94	0.47	2.019	0.967	-20.16		-0.70	0.000
171.11	12.403	-2.344	57.95	0.47	2.025	0.966	-104.09		-0.70	0.000
171.38	12.394	-1.382	57.96	0.47	2.016	0.966	-151.69		-0.70	0.000
171.65	12.389	-0.409	57.96	0.47	2.020	0.966	-241.10		-0.70	0.000
171.91	12.389	0.541	57.96	0.47	2.015	0.966	-274.97		-0.70	0.000
172.18	12.389	1.514	57.96	0.47	2.013	0.965	-298.85		-0.70	0.000
172.45	12.389	2.476	57.96	0.47	2.017	0.965	-306.75		-0.70	0.000
172.72	12.396	3.413	57.95	0.47	2.014	0.964	-294.45		-0.70	0.000
172.99	12.416	4.375	57.93	0.47	2.016	0.965	-275.83		-0.70	0.000
173.26	12.443	5.300	57.91	0.47	2.012	0.966	-277.99		-0.70	0.000
173.53	12.461	6.238	57.89	0.47	2.018	0.966	-285.04		-0.70	0.000
173.80	12.494	7.139	57.86	0.47	2.019	0.966	-278.36		-0.70	0.000
174.07	12.534	8.041	57.82	0.47	2.013	0.967	-262.00		-0.70	0.000
174.34	12.576	8.918	57.77	0.47	2.019	0.968	-245.03		-0.70	0.000
174.62	12.606	9.772	57.74	0.47	2.019	0.969	-199.02		-0.70	0.000
174.89	12.658	10.601	57.69	0.47	2.015	0.970	-170.79		-0.70	0.000
175.16	12.712	11.406	57.64	0.47	2.016	0.970	-116.23		-0.70	0.000
175.43	12.753	12.163	57.60	0.47	2.018	0.970	-91.56		-0.70	0.000
175.70	12.816	12.909	57.53	0.47	2.026	0.970	-41.65		-0.70	0.000
175.97	12.882	13.606	57.47	0.47	2.021	0.972	-16.13		-0.70	0.000
176.23	12.928	14.279	57.42	0.47	2.033	0.973	33.05		-0.70	0.000
176.50	13.001	14.904	57.35	0.47	2.024	0.974	35.31		-0.70	0.000
176.76	13.076	15.481	57.27	0.47	2.033	0.977	24.40		-0.70	0.000
177.03	13.129	16.022	57.22	0.47	2.037	0.979	17.80		-0.70	0.000
177.30	13.211	16.526	57.14	0.47	2.036	0.979	-7.51		-0.70	0.000
177.57	13.296	16.983	57.05	0.47	2.048	0.981	-29.66		-0.70	0.000
177.85	13.353	17.416	57.00	0.47	2.046	0.985	-109.19		-0.70	0.000
178.11	13.440	17.788	56.91	0.47	2.056	0.990	-149.30		-0.70	0.000
178.38	13.532	18.125	56.82	0.46	2.060	0.994	-218.87		-0.70	0.000
178.65	13.590	18.401	56.76	0.46	2.074	0.998	-244.21		-0.70	0.000
178.92	13.683	18.642	56.67	0.46	2.072	1.004	-297.55		-0.70	0.000
179.20	13.778	18.834	56.57	0.46	2.099	1.016	-324.40		-0.70	0.000
179.47	13.839	18.978	56.51	0.46	2.119	1.026	-370.84		-0.70	0.000
179.73	13.935	19.075	56.41	0.46	2.135	1.031	-395.67		-0.70	0.000
180.01	14.033	19.111	56.32	0.46	2.176	1.051	-430.91		-0.70	0.000
180.29	14.126	19.099	56.22	0.46	2.197	1.068	-426.00		-0.70	0.000
180.56	14.190	19.038	56.16	0.46	2.225	1.088	-382.10		-0.70	0.000
180.82	14.285	18.930	56.06	0.46	2.250	1.110	-345.33		-0.70	0.000
181.09	14.380	18.774	55.97	0.46	2.272	1.129	-283.29		-0.70	0.000
181.36	14.442	18.582	55.91	0.46	2.314	1.158	-259.34		-0.70	0.000
181.63	14.534	18.317	55.82	0.46	2.354	1.187	-221.49		-0.70	0.000
181.90	14.625	18.017	55.72	0.46	2.411	1.203	-210.82		-0.70	0.000
182.17	14.684	17.668	55.67	0.46	2.439	1.240	-197.38		-0.70	0.000
182.44	14.771	17.272	55.58	0.45	2.504	1.274	-189.68		-0.70	0.000
182.71	14.857	16.851	55.49	0.45	2.553	1.311	-154.61		-0.70	0.000
182.99	14.912	16.358	55.44	0.45	2.577	1.348	-131.24		-0.70	0.000
183.25	14.993	15.829	55.36	0.45	2.652	1.389	-116.85		-0.70	0.000
183.53	15.070	15.264	55.28	0.45	2.702	1.427	-125.75		-0.70	0.000
183.79	15.146	14.651	55.20	0.45	2.778	1.471	-173.44		-0.70	0.000
184.07	15.193	14.002	55.16	0.45	2.832	1.513	-198.92		-0.70	0.000
184.34	15.261	13.329	55.09	0.45	2.899	1.534	-276.68		-0.70	0.000
184.61	15.326	12.620	55.02	0.45	2.961	1.577	-321.15		-0.70	0.000
184.88	15.367	11.863	54.98	0.45	3.008	1.616	-367.82		-0.70	0.000
185.15	15.425	11.082	54.92	0.45	3.052	1.658	-367.87		-0.70	0.000
185.43	15.476	10.276	54.87	0.45	3.096	1.698	-335.51		-0.70	0.000
185.70	15.511	9.435	54.84	0.45	3.148	1.739	-316.34		-0.70	0.000
185.97	15.556	8.558	54.79	0.45	3.195	1.778	-262.22		-0.70	0.000
186.24	15.596	7.680	54.75	0.45	3.236	1.811	-243.02		-0.70	0.000
186.51	15.631	6.779	54.72	0.45	3.286	1.849	-222.40		-0.70	0.000
186.79	15.652	5.865	54.70	0.45	3.299	1.860	-219.86		-0.70	0.000
187.06	15.679	4.916	54.67	0.45	3.341	1.888	-227.04		-0.70	0.000
187.33	15.701	3.942	54.65	0.45	3.343	1.911	-214.14		-0.70	0.000
187.60	15.711	2.993	54.64	0.45	3.355	1.930	-172.11		-0.70	0.000
187.86	15.721	2.019	54.63	0.45	3.374	1.945	-145.22		-0.70	0.000
188.13	15.725	1.046	54.62	0.45	3.363	1.952	-111.24		-0.70	0.000
188.40	15.731	0.084	54.62	0.45	3.378	1.957	-103.33		-0.70	0.000
188.67	15.731	-0.853	54.62	0.45	3.355	1.958	-107.94		-0.70	0.000
188.94	15.731	-1.827	54.62	0.45	3.360	1.958	-105.59		-0.70	0.000
189.21	15.731	-2.800	54.62	0.45	3.344	1.955	-78.88		-0.70	0.000
189.48	15.716	-3.750	54.63	0.45	3.347	1.948	-50.30		-0.70	0.000
189.75	15.693	-4.700	54.66	0.45	3.354	1.943	38.66		-0.70	0.000
190.02	15.667	-5.625	54.68	0.45	3.336	1.937	79.38		-0.70	0.000
190.29	15.647	-6.550	54.70	0.45	3.333	1.932	102.71		-0.70	0.000
190.57	15.611	-7.452	54.74	0.45	3.303	1.922	88.80		-0.70	0.000
190.83	15.571	-8.353	54.78	0.45	3.287	1.907	37.60		-0.70	0.000
191.11	15.542	-9.231	54.81	0.45	3.263	1.886	10.67		-0.70	0.000
191.38	15.492	-10.060	54.86	0.45	3.221	1.871	-17.60		-0.70	0.000
191.65	15.440	-10.889	54.91	0.45	3.181	1.841	-19.75		-0.70	0.000
191.92	15.402	-11.683	54.95	0.45	3.154	1.804	-25.71		-0.70	0.000
192.20	15.343	-12.440	55.01	0.45	3.109	1.763	-26.57		-0.70	0.000
192.47	15.278	-13.161	55.07	0.45	3.067	1.720	-49.48		-0.70	0.000
192.74	15.211	-13.870	55.14	0.45	3.053	1.669	-77.03		-0.70	0.000
193.01	15.163	-14.519	55.19	0.45	3.047	1.636	-140.46		-0.70	0.000
193.29	15.088	-15.132	55.26	0.45	3.003	1.613	-164.31		-0.70	0.000
193.56	15.012	-15.709	55.34	0.45	2.969	1.593	-189.47		-0.70	0.000
193.83	14.958	-16.250	55.39	0.45	2.918	1.559	-194.40		-0.70	0.000
194.10	14.875	-16.755	55.47	0.45	2.896	1.539	-186.30		-0.70	0.000
194.38	14.790	-17.200	55.56	0.45	2.858	1.494	-186.78		-0.70	0.000
194.65	14.705	-17.596	55.65	0.45	2.806	1.447	-193.61		-0.70	0.000
194.93	14.644	-17.969	55.71	0.46	2.773	1.412	-212.82		-0.70	0.000
195.20	14.553	-18.281	55.80	0.46	2.733	1.379	-253.84		-0.71	0.000
195.47	14.461	-18.546	55.89	0.46	2.671	1.353	-268.29		-0.71	0.000
195.74	14.399	-18.750	55.95	0.46	2.586	1.319	-259.55		-0.71	0.000
196.01	14.305	-18.918	56.05	0.46	2.504	1.279	-240.96		-0.71	0.000
196.29	14.211	-19.038	56.14	0.46	2.432	1.242	-183.37		-0.71	0.000
196.56	14.116	-19.099	56.23	0.46	2.395	1.205	-162.54		-0.71	0.000
196.83	14.052	-19.111	56.30	0.46	2.340	1.187	-149.55		-0.71	0.000
197.11	13.957	-19.075	56.39	0.46	2.279	1.154	-156.66		-0.71	0.000
197.38	13.861	-18.990	56.49	0.46	2.248	1.129	-188.76		-0.71	0.000
197.65	13.797	-18.846	56.55	0.46	2.207	1.107	-197.37		-0.71	0.000
197.92	13.705	-18.666	56.65	0.46	2.186	1.088	-189.73		-0.71	0.000
198.20	13.612	-18.425	56.74	0.46	2.150	1.071	-169.75		-0.71	0.000
198.47	13.520	-18.137	56.83	0.46	2.145	1.057	-140.19		-0.71	0.000
198.74	13.460	-17.800	56.89	0.47	2.116	1.044	-132.05		-0.71	0.000
199.02	13.373	-17.428	56.98	0.47	2.098	1.035	-131.04		-0.71	0.000
199.28	13.285	-17.007	57.06	0.47	2.096	1.027	-133.92		-0.71	0.000
199.56	13.230	-16.526	57.12	0.47	2.079	1.020	-95.65		-0.71	0.000
199.83	13.149	-16.022	57.20	0.47	2.071	1.013	-65.97		-0.71	0.000
200.10	13.070	-15.457	57.28	0.47	2.057	1.005	7.66		-0.71	0.000
200.36	13.020	-14.868	57.33	0.47	2.054	0.999	32.94		-0.71	0.000
200.64	12.948	-14.243	57.40	0.47	2.043	0.995	66.53		-0.71	0.000
200.90	12.878	-13.594	57.47	0.47	2.037	0.990	80.95		-0.71	0.000
201.18	12.811	-12.873	57.54	0.47	2.038	0.986	94.88		-0.71	0.000
201.45	12.769	-12.151	57.58	0.47	2.019	0.984	103.06		-0.71	0.000
201.72	12.710	-11.358	57.64	0.47	2.025	0.983	112.65		-0.71	0.000
201.99	12.655	-10.577	57.70	0.47	2.018	0.977	117.87		-0.71	0.000
202.26	12.620	-9.748	57.73	0.47	2.000	0.975	130.74		-0.71	0.000
202.53	12.575	-8.906	57.77	0.47	2.024	0.974	138.17		-0.71	0.000
202.80	12.534	-8.017	57.82	0.47	1.996	0.974	158.42		-0.71	0.000
203.07	12.508	-7.127	57.84	0.47	2.014	0.971	168.31		-0.71	0.000
203.34	12.476	-6.202	57.87	0.47	2.006	0.971	196.98		-0.71	0.000
203.62	12.448	-5.276	57.90	0.47	2.009	0.971	204.00		-0.71	0.000
203.88	12.428	-4.339	57.92	0.47	2.006	0.971	196.79		-0.71	0.000
204.15	12.411	-3.365	57.94	0.47	2.001	0.972	193.93		-0.71	0.000
204.42	12.401	-2.416	57.95	0.47	2.011	0.970	182.50		-0.71	0.000
204.69	12.392	-1.454	57.96	0.47	1.988	0.968	182.29		-0.71	0.000
204.95	12.389	-0.505	57.96	0.47	2.013	0.967	182.94		-0.71	0.000
205.22	12.388	0.469	57.96	0.47	2.000	0.969	177.46		-0.71	0.000
205.48	12.388	1.418	57.96	0.47	2.005	0.970	122.37		-0.71	0.000
205.74	12.388	2.368	57.96	0.47	2.012	0.969	89.87		-0.71	0.000
206.00	12.398	3.305	57.95	0.47	1.990	0.970	57.41		-0.71	0.000
206.27	12.410	4.231	57.94	0.47	2.013	0.971	-2.75		-0.71	0.000
206.54	12.434	5.132	57.92	0.47	1.992	0.970	-27.28		-0.71	0.000
206.81	12.462	6.070	57.89	0.47	1.998	0.969	-65.30		-0.71	0.000
207.08	12.484	6.959	57.87	0.47	2.009	0.969	-85.87		-0.71	0.000
207.35	12.523	7.873	57.83	0.47	1.985	0.969	-120.54		-0.71	0.000
207.62	12.565	8.738	57.79	0.47	2.004	0.972	-143.01		-0.71	0.000
207.90	12.594	9.591	57.76	0.47	1.995	0.973	-172.55		-0.71	0.000
208.16	12.646	10.433	57.70	0.47	2.010	0.973	-184.13		-0.71	0.000
208.43	12.699	11.250	57.65	0.47	1.993	0.973	-176.59		-0.71	0.000
208.70	12.737	12.007	57.61	0.47	2.010	0.974	-172.12		-0.71	0.000
208.98	12.801	12.752	57.55	0.47	2.015	0.975	-175.94		-0.71	0.000
209.25	12.866	13.462	57.48	0.47	1.997	0.976	-171.96		-0.71	0.000
209.52	12.935	14.147	57.41	0.47	2.023	0.978	-160.20		-0.71	0.000
209.78	12.983	14.784	57.37	0.47	2.008	0.980	-147.33		-0.71	0.000
210.06	13.060	15.385	57.29	0.47	2.018	0.983	-155.55		-0.71	0.000
210.33	13.137	15.925	57.21	0.47	2.023	0.984	-160.89		-0.71	0.000
210.60	13.190	16.454	57.16	0.47	2.024	0.985	-185.47		-0.71	0.000
210.87	13.275	16.923	57.07	0.47	2.035	0.989	-205.19		-0.71	0.000
211.14	13.361	17.356	56.99	0.47	2.029	0.993	-249.09		-0.71	0.000
211.41	13.417	17.752	56.93	0.47	2.044	0.998	-271.16		-0.71	0.000
211.68	13.508	18.089	56.84	0.46	2.044	1.002	-285.33		-0.71	0.000
211.95	13.599	18.377	56.75	0.46	2.056	1.005	-283.60		-0.71	0.000
212.22	13.661	18.618	56.69	0.46	2.075	1.012	-283.73		-0.71	0.000
212.50	13.755	18.822	56.60	0.46	2.078	1.017	-282.31		-0.71	0.000
212.77	13.849	18.966	56.50	0.46	2.112	1.027	-272.41		-0.71	0.000
213.04	13.944	19.063	56.41	0.46	2.119	1.041	-255.78		-0.71	0.000
213.31	14.008	19.111	56.34	0.46	2.149	1.057	-194.25		-0.71	0.000
213.59	14.103	19.111	56.25	0.46	2.174	1.076	-152.01		-0.71	0.000
213.86	14.198	19.050	56.15	0.46	2.202	1.091	-95.21		-0.71	0.000
214.13	14.262	18.954	56.09	0.46	2.233	1.113	-75.75		-0.71	0.000
214.39	14.357	18.798	55.99	0.46	2.255	1.132	-41.04		-0.71	0.000
214.66	14.448	18.594	55.90	0.46	2.310	1.160	-42.39		-0.71	0.000
214.93	14.511	18.353	55.84	0.46	2.346	1.174	-66.43		-0.71	0.000
215.20	14.603	18.065	55.75	0.46	2.394	1.201	-85.52		-0.71	0.000
215.47	14.690	17.716	55.66	0.46	2.423	1.238	-124.39		-0.71	0.000
215.74	14.749	17.332	55.60	0.45	2.456	1.272	-132.26		-0.71	0.000
216.01	14.835	16.899	55.51	0.45	2.518	1.312	-135.26		-0.71	0.000
216.28	14.919	16.430	55.43	0.45	2.577	1.346	-132.23		-0.71	0.000
216.55	14.999	15.901	55.35	0.45	2.637	1.388	-112.02		-0.71	0.000
216.82	15.051	15.349	55.30	0.45	2.692	1.429	-104.50		-0.71	0.000
217.09	15.126	14.736	55.22	0.45	2.765	1.447	-111.16		-0.71	0.000
217.36	15.199	14.099	55.15	0.45	2.838	1.492	-130.30		-0.71	0.000
217.64	15.244	13.413	55.11	0.45	2.843	1.532	-156.14		-0.71	0.000
217.91	15.310	12.716	55.04	0.45	2.916	1.574	-166.69		-0.71	0.000
218.18	15.371	11.959	54.98	0.45	2.966	1.615	-192.50		-0.71	0.000
218.45	15.411	11.190	54.94	0.45	3.027	1.655	-207.65		-0.71	0.000
218.72	15.465	10.373	54.89	0.45	3.084	1.697	-251.32		-0.71	0.000
218.99	15.513	9.543	54.84	0.45	3.123	1.729	-275.98		-0.71	0.000
219.26	15.544	8.678	54.81	0.45	3.183	1.772	-327.97		-0.71	0.000
219.53	15.587	7.813	54.76	0.45	3.213	1.787	-346.67		-0.71	0.000
219.80	15.624	6.923	54.73	0.45	3.232	1.821	-316.91		-0.71	0.000
220.08	15.655	6.010	54.70	0.45	3.276	1.856	-279.40		-0.71	0.000
220.35	15.672	5.048	54.68	0.45	3.301	1.880	-197.91		-0.71	0.000
220.63	15.696	4.099	54.65	0.45	3.337	1.906	-173.03		-0.71	0.000
220.90	15.711	3.113	54.64	0.45	3.319	1.924	-149.74		-0.71	0.000
221.17	15.719	2.139	54.63	0.45	3.371	1.936	-143.77		-0.71	0.000
221.44	15.726	1.166	54.62	0.45	3.340	1.945	-137.84		-0.71	0.000
221.71	15.729	0.192	54.62	0.45	3.353	1.948	-131.21		-0.71	0.000
221.98	15.729	-0.793	54.62	0.45	3.333	1.949	-113.49		-0.71	0.000
222.25	15.729	-1.731	54.62	0.45	3.322	1.949	-115.86		-0.71	0.000
222.52	15.729	-2.704	54.62	0.45	3.362	1.942	-147.57		-0.71	0.000
222.79	15.715	-3.654	54.64	0.45	3.319	1.935	-180.01		-0.71	0.000
223.07	15.701	-4.627	54.65	0.45	3.349	1.929	-238.16		-0.71	0.000
223.34	15.675	-5.541	54.67	0.45	3.298	1.926	-243.65		-0.71	0.000
223.62	15.643	-6.502	54.71	0.45	3.313	1.920	-196.83		-0.71	0.000
223.89	15.606	-7.416	54.74	0.45	3.280	1.913	-151.86		-0.71	0.000
224.17	15.583	-8.329	54.77	0.45	3.251	1.891	-50.91		-0.71	0.000
224.44	15.538	-9.219	54.81	0.45	3.242	1.878	-0.50		-0.71	0.000
224.72	15.489	-10.060	54.86	0.45	3.190	1.862	79.10		-0.71	0.000
224.99	15.435	-10.877	54.91	0.45	3.186	1.828	109.83		-0.71	0.000
225.26	15.398	-11.695	54.95	0.45	3.126	1.797	170.59		-0.71	0.000
225.53	15.339	-12.452	55.01	0.45	3.081	1.748	202.21		-0.71	0.000
225.80	15.274	-13.185	55.08	0.45	3.040	1.709	270.43		-0.71	0.000
226.07	15.230	-13.870	55.12	0.45	3.004	1.654	298.31		-0.71	0.000
226.34	15.157	-14.519	55.19	0.45	3.015	1.616	272.51		-0.71	0.000
226.61	15.084	-15.120	55.27	0.45	2.961	1.588	227.48		-0.71	0.000
226.88	15.033	-15.709	55.32	0.45	2.962	1.574	111.26		-0.71	0.000
227.16	14.952	-16.238	55.40	0.45	2.910	1.543	47.50		-0.71	0.000
227.43	14.870	-16.731	55.48	0.45	2.857	1.526	-64.04		-0.71	0.000
227.70	14.784	-17.188	55.57	0.45	2.841	1.489	-107.44		-0.71	0.000
227.98	14.729	-17.596	55.62	0.45	2.770	1.443	-179.49		-0.71	0.000
228.26	14.638	-17.957	55.71	0.46	2.757	1.410	-212.63		-0.71	0.000
228.53	14.547	-18.281	55.80	0.46	2.694	1.376	-282.62		-0.71	0.000
228.80	14.485	-18.546	55.86	0.46	2.655	1.348	-322.60		-0.71	0.000
229.07	14.393	-18.762	55.96	0.46	2.561	1.320	-372.92		-0.71	0.000
229.35	14.298	-18.918	56.05	0.46	2.495	1.281	-374.63		-0.71	0.000
229.63	14.203	-19.038	56.15	0.46	2.458	1.244	-353.88		-0.71	0.000
229.89	14.140	-19.099	56.21	0.46	2.371	1.202	-340.10		-0.71	0.000
230.17	14.046	-19.111	56.30	0.46	2.327	1.188	-307.92		-0.71	0.000
230.45	13.949	-19.075	56.40	0.46	2.256	1.159	-305.12		-0.71	0.000
230.72	13.855	-18.990	56.50	0.46	2.231	1.128	-306.92		-0.71	0.000
230.99	13.790	-18.846	56.56	0.46	2.183	1.109	-318.58		-0.71	0.000
231.26	13.698	-18.654	56.65	0.46	2.164	1.086	-337.45		-0.71	0.000
231.54	13.606	-18.425	56.74	0.46	2.143	1.071	-347.46		-0.71	0.000
231.81	13.544	-18.137	56.81	0.46	2.111	1.054	-381.23		-0.71	0.000
232.08	13.455	-17.800	56.90	0.47	2.113	1.042	-408.75		-0.71	0.000
232.35	13.366	-17.416	56.98	0.47	2.083	1.028	-460.09		-0.71	0.000
232.62	13.280	-16.995	57.07	0.47	2.078	1.018	-508.03		-0.71	0.000
232.90	13.225	-16.514	57.12	0.47	2.060	1.008	-530.64		-0.71	0.000
233.18	13.144	-16.010	57.21	0.47	2.040	1.002	-585.05		-0.71	0.000
233.44	13.066	-15.445	57.28	0.47	2.043	0.995	-610.90		-0.71	0.000
233.72	13.015	-14.832	57.34	0.47	2.022	0.991	-635.76		-0.71	0.000
233.99	12.942	-14.207	57.41	0.47	2.029	0.987	-647.48		-0.71	0.000
234.26	12.873	-13.534	57.48	0.47	2.017	0.984	-659.36		-0.71	0.000
234.54	12.807	-12.825	57.54	0.47	2.010	0.978	-653.88		-0.71	0.000
234.81	12.765	-12.067	57.59	0.47	2.017	0.974	-621.18		-0.71	0.000
235.08	12.706	-11.298	57.64	0.47	1.999	0.972	-590.63		-0.71	0.000
235.35	12.653	-10.493	57.70	0.47	2.009	0.971	-527.65		-0.71	0.000
235.63	12.619	-9.651	57.73	0.47	1.991	0.970	-485.53		-0.71	0.000
235.90	12.571	-8.798	57.78	0.47	1.997	0.970	-391.85		-0.71	0.000
236.18	12.530	-7.909	57.82	0.47	1.992	0.969	-346.51		-0.71	0.000
236.45	12.496	-7.007	57.85	0.47	1.992	0.969	-262.19		-0.71	0.000
236.72	12.473	-6.070	57.88	0.47	1.991	0.965	-225.60		-0.71	0.000
236.99	12.447	-5.144	57.90	0.47	1.975	0.963	-166.14		-0.71	0.000
237.27	12.426	-4.195	57.92	0.47	1.984	0.963	-147.57		-0.71	0.000
237.54	12.410	-3.221	57.94	0.47	1.982	0.964	-110.52		-0.71	0.000
237.81	12.398	-2.248	57.95	0.47	1.980	0.963	-89.45		-0.71	0.000
238.07	12.394	-1.262	57.96	0.47	1.975	0.963	-43.03		-0.71	0.000
238.34	12.387	-0.300	57.96	0.47	1.982	0.962	-18.61		-0.71	0.000
238.60	12.387	0.661	57.96	0.47	1.996	0.963	17.45		-0.71	0.000
238.86	12.387	1.599	57.96	0.47	1.977	0.964	32.86		-0.71	0.000
239.13	12.387	2.548	57.96	0.47	1.984	0.963	47.08		-0.71	0.000
239.39	12.398	3.486	57.95	0.47	1.977	0.964	26.41		-0.71	0.000
239.65	12.421	4.411	57.93	0.47	1.977	0.965	3.62		-0.71	0.000
239.93	12.439	5.325	57.91	0.47	1.983	0.966	-45.35		-0.71	0.000
240.19	12.469	6.226	57.88	0.47	1.974	0.967	-63.83		-0.71	0.000
240.47	12.502	7.151	57.85	0.47	1.983	0.968	-100.88		-0.71	0.000
240.73	12.528	8.029	57.82	0.47	1.982	0.968	-120.11		-0.71	0.000
241.01	12.570	8.918	57.78	0.47	1.983	0.970	-160.65		-0.71	0.000
241.28	12.619	9.748	57.73	0.47	1.986	0.971	-180.84		-0.71	0.000
241.55	12.649	10.589	57.70	0.47	1.985	0.974	-214.67		-0.71	0.000
241.82	12.706	11.394	57.64	0.47	1.990	0.975	-224.03		-0.71	0.000
242.09	12.765	12.151	57.59	0.47	1.987	0.975	-229.57		-0.71	0.000
242.36	12.807	12.897	57.54	0.47	1.989	0.975	-228.97		-0.71	0.000
242.63	12.873	13.606	57.48	0.47	1.990	0.976	-227.11		-0.71	0.000
242.90	12.943	14.255	57.41	0.47	1.995	0.978	-220.96		-0.71	0.000
243.17	12.991	14.892	57.36	0.47	1.997	0.980	-205.58		-0.71	0.000
243.44	13.066	15.481	57.28	0.47	2.000	0.982	-199.64		-0.71	0.000
243.71	13.143	16.034	57.21	0.47	2.005	0.986	-177.31		-0.71	0.000
243.98	13.226	16.538	57.12	0.47	2.003	0.987	-177.62		-0.71	0.000
244.25	13.284	17.007	57.07	0.47	2.012	0.991	-196.71		-0.71	0.000
244.52	13.369	17.428	56.98	0.47	2.016	0.992	-219.94		-0.71	0.000
244.79	13.456	17.800	56.89	0.47	2.025	0.997	-256.80		-0.71	0.000
245.05	13.517	18.137	56.83	0.46	2.029	1.002	-256.98		-0.71	0.000
245.33	13.606	18.425	56.74	0.46	2.037	1.008	-216.54		-0.71	0.000
245.60	13.699	18.654	56.65	0.46	2.056	1.014	-184.40		-0.71	0.000
245.87	13.762	18.846	56.59	0.46	2.072	1.021	-133.47		-0.71	0.000
246.15	13.856	18.978	56.49	0.46	2.104	1.034	-129.26		-0.71	0.000
246.42	13.953	19.075	56.40	0.46	2.127	1.049	-140.64		-0.71	0.000
246.68	14.016	19.111	56.33	0.46	2.144	1.067	-156.62		-0.71	0.000
246.96	14.112	19.099	56.24	0.46	2.165	1.075	-155.03		-0.71	0.000
247.22	14.207	19.038	56.14	0.46	2.194	1.095	-141.18		-0.71	0.000
247.50	14.270	18.930	56.08	0.46	2.224	1.118	-137.92		-0.71	0.000
247.77	14.364	18.774	55.99	0.46	2.263	1.139	-151.82		-0.71	0.000
248.04	14.460	18.570	55.89	0.46	2.303	1.162	-210.89		-0.71	0.000
248.31	14.551	18.305	55.80	0.46	2.347	1.188	-252.29		-0.71	0.000
248.58	14.612	18.005	55.74	0.46	2.394	1.218	-315.32		-0.71	0.000
248.86	14.699	17.644	55.65	0.45	2.442	1.254	-330.67		-0.71	0.000
249.13	14.787	17.260	55.56	0.45	2.471	1.290	-318.89		-0.71	0.000
249.40	14.844	16.803	55.51	0.45	2.523	1.307	-308.50		-0.71	0.000
249.67	14.926	16.310	55.42	0.45	2.577	1.346	-279.28		-0.71	0.000
249.94	15.007	15.793	55.34	0.45	2.636	1.385	-269.34		-0.71	0.000
250.21	15.058	15.216	55.29	0.45	2.705	1.424	-249.46		-0.71	0.000
250.48	15.134	14.615	55.22	0.45	2.759	1.465	-223.21		-0.71	0.000
250.75	15.205	13.966	55.15	0.45	2.827	1.509	-155.18		-0.71	0.000
251.02	15.272	13.293	55.08	0.45	2.885	1.548	-119.85		-0.71	0.000
251.29	15.316	12.560	55.03	0.45	2.913	1.588	-49.70		-0.71	0.000
251.56	15.376	11.815	54.97	0.45	2.968	1.607	-27.14		-0.71	0.000
251.83	15.433	11.034	54.92	0.45	3.023	1.649	12.07		-0.71	0.000
252.09	15.469	10.228	54.88	0.45	3.072	1.688	26.58		-0.71	0.000
252.36	15.519	9.399	54.83	0.45	3.126	1.727	53.90		-0.71	0.000
252.63	15.562	8.570	54.79	0.45	3.174	1.765	67.21		-0.71	0.000
252.90	15.590	7.692	54.76	0.45	3.218	1.800	57.58		-0.71	0.000
253.17	15.625	6.803	54.72	0.45	3.241	1.832	44.55		-0.71	0.000
253.43	15.655	5.889	54.70	0.45	3.270	1.852	15.52		-0.71	0.000
253.70	15.675	4.952	54.67	0.45	3.297	1.879	11.77		-0.71	0.000
253.98	15.696	4.014	54.65	0.45	3.319	1.902	33.93		-0.71	0.000
254.24	15.711	3.077	54.64	0.45	3.329	1.920	54.38		-0.71	0.000
254.50	15.719	2.079	54.63	0.45	3.341	1.931	77.34		-0.71	0.000
254.77	15.726	1.142	54.62	0.45	3.343	1.941	120.42		-0.71	0.000
255.03	15.729	0.192	54.62	0.45	3.340	1.945	131.29		-0.71	0.000
255.30	15.729	-0.769	54.62	0.45	3.334	1.947	128.26		-0.71	0.000
255.57	15.729	-1.707	54.62	0.45	3.329	1.947	126.76		-0.71	0.000
255.84	15.729	-2.668	54.62	0.45	3.326	1.942	164.69		-0.71	0.000
256.11	15.717	-3.618	54.63	0.45	3.322	1.936	194.32		-0.71	0.000
256.38	15.698	-4.579	54.65	0.45	3.302	1.932	250.53		-0.71	0.000
256.65	15.670	-5.493	54.68	0.45	3.296	1.929	267.21		-0.71	0.000
256.93	15.652	-6.442	54.70	0.45	3.279	1.921	262.32		-0.71	0.000
257.21	15.615	-7.356	54.74	0.45	3.264	1.911	234.68		-0.71	0.000
257.48	15.576	-8.269	54.77	0.45	3.248	1.894	160.04		-0.71	0.000
257.75	15.533	-9.147	54.82	0.45	3.219	1.872	120.70		-0.71	0.000
258.02	15.501	-9.988	54.85	0.45	3.186	1.857	42.24		-0.71	0.000
258.29	15.448	-10.817	54.90	0.45	3.139	1.826	1.77		-0.71	0.000
258.56	15.393	-11.611	54.96	0.45	3.106	1.791	-89.89		-0.71	0.000
258.84	15.351	-12.368	55.00	0.45	3.058	1.750	-134.20		-0.71	0.000
259.11	15.288	-13.101	55.06	0.45	3.015	1.705	-217.71		-0.71	0.000
259.38	15.221	-13.786	55.13	0.45	2.996	1.656	-265.94		-0.71	0.000
259.66	15.175	-14.459	55.17	0.45	2.982	1.613	-366.94		-0.71	0.000
259.93	15.101	-15.084	55.25	0.45	2.976	1.587	-397.63		-0.71	0.000
260.20	15.024	-15.661	55.33	0.45	2.938	1.566	-412.67		-0.71	0.000
260.48	14.944	-16.202	55.41	0.45	2.897	1.541	-413.32		-0.71	0.000
260.75	14.890	-16.707	55.46	0.45	2.851	1.524	-394.11		-0.71	0.000
261.02	14.805	-17.163	55.55	0.45	2.808	1.486	-380.65		-0.71	0.000
261.30	14.717	-17.572	55.63	0.45	2.771	1.447	-329.98		-0.71	0.000
261.57	14.629	-17.933	55.72	0.46	2.727	1.411	-263.24		-0.71	0.000
261.84	14.569	-18.257	55.78	0.46	2.711	1.379	-240.33		-0.71	0.000
262.11	14.476	-18.522	55.87	0.46	2.674	1.351	-219.93		-0.71	0.000
262.39	14.383	-18.738	55.97	0.46	2.582	1.327	-221.26		-0.71	0.000
262.66	14.321	-18.906	56.03	0.46	2.515	1.291	-220.27		-0.71	0.000
262.94	14.226	-19.026	56.12	0.46	2.425	1.255	-219.63		-0.71	0.000
263.21	14.130	-19.099	56.22	0.46	2.362	1.217	-221.01		-0.71	0.000
263.48	14.035	-19.111	56.31	0.46	2.306	1.197	-226.89		-0.71	0.000
263.75	13.973	-19.075	56.38	0.46	2.253	1.169	-235.02		-0.71	0.000
264.02	13.878	-19.002	56.47	0.46	2.214	1.139	-227.85		-0.71	0.000
264.30	13.783	-18.858	56.57	0.46	2.173	1.115	-207.24		-0.71	0.000
264.57	13.719	-18.678	56.63	0.46	2.158	1.095	-194.74		-0.71	0.000
264.85	13.626	-18.450	56.72	0.46	2.137	1.075	-197.55		-0.71	0.000
265.11	13.537	-18.161	56.81	0.46	2.115	1.059	-188.30		-0.71	0.000
265.39	13.446	-17.837	56.90	0.47	2.095	1.043	-142.99		-0.71	0.000
265.66	13.385	-17.464	56.96	0.47	2.070	1.030	-114.14		-0.71	0.000
265.93	13.299	-17.031	57.05	0.47	2.056	1.020	-49.12		-0.71	0.000
266.20	13.216	-16.575	57.13	0.47	2.043	1.015	-10.85		-0.71	0.000
266.47	13.162	-16.058	57.19	0.47	2.023	1.006	51.18		-0.71	0.000
266.73	13.083	-15.517	57.27	0.47	2.027	1.000	50.16		-0.71	0.000
267.00	13.007	-14.928	57.34	0.47	2.017	0.996	-4.61		-0.71	0.000
267.28	12.957	-14.315	57.39	0.47	2.005	0.990	-41.64		-0.71	0.000
267.55	12.889	-13.654	57.46	0.47	2.003	0.987	-97.05		-0.71	0.000
267.82	12.823	-12.945	57.53	0.47	1.994	0.985	-109.25		-0.71	0.000
268.10	12.760	-12.212	57.59	0.47	1.983	0.982	-138.18		-0.71	0.000
268.37	12.720	-11.430	57.63	0.47	1.980	0.979	-164.28		-0.71	0.000
268.64	12.665	-10.625	57.69	0.47	1.978	0.975	-233.18		-0.71	0.000
268.92	12.614	-9.784	57.74	0.47	1.972	0.972	-266.18		-0.71	0.000
269.19	12.583	-8.942	57.77	0.47	1.975	0.970	-325.40		-0.71	0.000
269.46	12.539	-8.041	57.81	0.47	1.968	0.968	-332.14		-0.71	0.000
269.74	12.503	-7.139	57.85	0.47	1.963	0.967	-295.35		-0.71	0.000
270.01	12.471	-6.226	57.88	0.47	1.962	0.965	-261.17		-0.71	0.000
270.28	12.451	-5.288	57.90	0.47	1.963	0.963	-191.36		-0.71	0.000
270.55	12.429	-4.339	57.92	0.47	1.950	0.962	-160.18		-0.71	0.000
270.82	12.408	-3.389	57.94	0.47	1.962	0.960	-86.16		-0.71	0.000
271.09	12.405	-2.404	57.95	0.47	1.964	0.960	-44.42		-0.71	0.000
271.35	12.396	-1.454	57.95	0.47	1.950	0.961	36.58		-0.71	0.000
271.62	12.388	-0.469	57.96	0.47	1.960	0.961	60.10		-0.71	0.000
271.89	12.388	0.469	57.96	0.47	1.956	0.961	62.04		-0.71	0.000
272.15	12.388	1.418	57.96	0.47	1.951	0.962	47.68		-0.71	0.000
272.40	12.388	2.368	57.96	0.47	1.956	0.963	21.94		-0.71	0.000
272.67	12.397	3.305	57.95	0.47	1.956	0.963	-44.63		-0.71	0.000
272.94	12.416	4.207	57.93	0.47	1.955	0.964	-88.58		-0.71	0.000
273.21	12.430	5.156	57.92	0.47	1.954	0.965	-167.35		-0.71	0.000
273.48	12.461	6.070	57.89	0.47	1.953	0.966	-197.15		-0.71	0.000
273.75	12.496	6.983	57.85	0.47	1.953	0.966	-229.29		-0.71	0.000
274.02	12.519	7.885	57.83	0.47	1.956	0.965	-239.60		-0.71	0.000
274.29	12.560	8.762	57.79	0.47	1.956	0.966	-242.23		-0.71	0.000
274.56	12.606	9.603	57.74	0.47	1.958	0.970	-238.83		-0.71	0.000
274.83	12.657	10.445	57.69	0.47	1.959	0.971	-217.90		-0.71	0.000
275.10	12.692	11.238	57.66	0.47	1.958	0.972	-208.80		-0.71	0.000
275.37	12.749	12.019	57.60	0.47	1.964	0.973	-192.80		-0.71	0.000
275.64	12.814	12.752	57.54	0.47	1.965	0.973	-175.18		-0.71	0.000
275.91	12.857	13.474	57.49	0.47	1.963	0.974	-133.89		-0.71	0.000
276.18	12.926	14.147	57.42	0.47	1.969	0.975	-121.98		-0.71	0.000
276.45	12.998	14.784	57.35	0.47	1.969	0.977	-117.59		-0.71	0.000
276.72	13.047	15.373	57.30	0.47	1.976	0.979	-126.23		-0.71	0.000
277.00	13.126	15.937	57.22	0.47	1.976	0.982	-153.77		-0.71	0.000
277.27	13.208	16.442	57.14	0.47	1.986	0.984	-172.18		-0.71	0.000
277.54	13.290	16.923	57.06	0.47	1.990	0.988	-207.49		-0.71	0.000
277.81	13.348	17.356	57.00	0.47	1.998	0.992	-205.77		-0.71	0.000
278.09	13.435	17.752	56.91	0.47	2.007	0.996	-168.72		-0.71	0.000
278.35	13.525	18.089	56.82	0.46	2.012	1.000	-140.27		-0.71	0.000
278.62	13.585	18.377	56.76	0.46	2.024	1.008	-94.45		-0.71	0.000
278.89	13.678	18.618	56.67	0.46	2.045	1.017	-72.84		-0.71	0.000
279.16	13.773	18.822	56.58	0.46	2.052	1.026	-46.80		-0.71	0.000
279.42	13.835	18.966	56.51	0.46	2.073	1.033	-38.46		-0.71	0.000
279.69	13.931	19.063	56.42	0.46	2.101	1.045	-34.77		-0.71	0.000
279.96	14.025	19.111	56.32	0.46	2.125	1.059	-43.79		-0.71	0.000
280.23	14.089	19.111	56.26	0.46	2.156	1.078	-62.45		-0.71	0.000
280.50	14.183	19.063	56.17	0.46	2.190	1.096	-68.22		-0.71	0.000
280.77	14.280	18.966	56.07	0.46	2.225	1.121	-69.55		-0.71	0.000
281.04	14.344	18.810	56.01	0.46	2.244	1.144	-67.16		-0.71	0.000
281.31	14.437	18.618	55.91	0.46	2.283	1.170	-81.57		-0.71	0.000
281.58	14.529	18.377	55.82	0.46	2.324	1.186	-91.58		-0.71	0.000
281.85	14.590	18.077	55.76	0.46	2.372	1.213	-85.85		-0.71	0.000
282.12	14.679	17.740	55.67	0.46	2.420	1.245	-70.96		-0.71	0.000
282.39	14.767	17.356	55.58	0.45	2.478	1.280	-31.20		-0.71	0.000
282.66	14.824	16.935	55.53	0.45	2.524	1.318	-13.29		-0.71	0.000
282.92	14.907	16.454	55.44	0.45	2.557	1.354	14.16		-0.71	0.000
283.19	14.987	15.937	55.36	0.45	2.616	1.394	27.25		-0.71	0.000
283.46	15.042	15.397	55.31	0.45	2.674	1.429	27.11		-0.71	0.000
283.72	15.116	14.808	55.23	0.45	2.736	1.452	6.16		-0.71	0.000
283.99	15.188	14.183	55.16	0.45	2.807	1.494	-20.52		-0.71	0.000
284.26	15.234	13.522	55.12	0.45	2.861	1.532	-75.56		-0.71	0.000
284.52	15.299	12.825	55.05	0.45	2.921	1.577	-107.43		-0.71	0.000
284.80	15.362	12.079	54.99	0.45	2.947	1.617	-186.19		-0.71	0.000
285.07	15.402	11.334	54.95	0.45	3.005	1.657	-238.58		-0.71	0.000
285.34	15.456	10.517	54.89	0.45	3.060	1.696	-351.45		-0.71	0.000
285.60	15.506	9.700	54.84	0.45	3.117	1.713	-391.84		-0.71	0.000
285.88	15.538	8.834	54.81	0.45	3.159	1.751	-417.23		-0.71	0.000
286.14	15.580	7.981	54.77	0.45	3.203	1.791	-407.77		-0.71	0.000
286.42	15.617	7.079	54.73	0.45	3.239	1.825	-359.83		-0.71	0.000
286.69	15.647	6.178	54.70	0.45	3.265	1.854	-321.37		-0.71	0.000
286.97	15.667	5.228	54.68	0.45	3.290	1.882	-238.97		-0.71	0.000
287.24	15.690	4.267	54.66	0.45	3.314	1.904	-191.10		-0.71	0.000
287.52	15.706	3.293	54.64	0.45	3.333	1.924	-90.47		-0.71	0.000
287.78	15.715	2.344	54.64	0.45	3.338	1.938	-42.83		-0.71	0.000
288.05	15.724	1.346	54.63	0.45	3.345	1.946	62.09		-0.71	0.000
288.31	15.726	0.385	54.62	0.45	3.346	1.947	114.79		-0.71	0.000
288.58	15.728	-0.565	54.62	0.45	3.342	1.948	213.39		-0.71	0.000
288.85	15.728	-1.514	54.62	0.45	3.333	1.948	244.91		-0.71	0.000
289.12	15.728	-2.476	54.62	0.45	3.328	1.946	242.01		-0.71	0.000
289.39	15.721	-3.425	54.63	0.45	3.321	1.940	217.36		-0.71	0.000
289.66	15.699	-4.387	54.65	0.45	3.317	1.936	145.50		-0.71	0.000
289.93	15.674	-5.325	54.68	0.45	3.309	1.931	115.59		-0.71	0.000
290.22	15.646	-6.262	54.70	0.45	3.300	1.923	66.87		-0.71	0.000
290.48	15.621	-7.175	54.73	0.45	3.278	1.919	48.71		-0.71	0.000
290.76	15.583	-8.113	54.77	0.45	3.256	1.904	25.09		-0.71	0.000
291.02	15.539	-8.954	54.81	0.45	3.227	1.884	13.08		-0.71	0.000
291.30	15.510	-9.832	54.84	0.45	3.214	1.860	-20.79		-0.71	0.000
291.57	15.458	-10.637	54.89	0.45	3.180	1.832	-51.01		-0.71	0.000
291.85	15.403	-11.442	54.95	0.45	3.134	1.798	-95.31		-0.71	0.000
292.12	15.343	-12.212	55.01	0.45	3.091	1.758	-96.01		-0.71	0.000
292.39	15.301	-12.969	55.05	0.45	3.043	1.714	-58.44		-0.71	0.000
292.66	15.234	-13.666	55.12	0.45	3.010	1.665	-28.29		-0.71	0.000
292.93	15.166	-14.327	55.18	0.45	2.999	1.640	6.65		-0.71	0.000
293.19	15.116	-14.964	55.23	0.45	2.979	1.600	7.04		-0.71	0.000
293.46	15.039	-15.541	55.31	0.45	2.976	1.578	-0.83		-0.71	0.000
293.73	14.960	-16.070	55.39	0.45	2.932	1.559	-5.02		-0.71	0.000
294.00	14.906	-16.587	55.44	0.45	2.887	1.536	5.82		-0.71	0.000
294.27	14.821	-17.043	55.53	0.45	2.840	1.500	21.73		-0.71	0.000
294.54	14.735	-17.452	55.61	0.45	2.799	1.462	78.73		-0.71	0.000
294.81	14.676	-17.825	55.67	0.46	2.757	1.428	106.42		-0.71	0.000
295.08	14.585	-18.161	55.76	0.46	2.716	1.413	154.10		-0.71	0.000
295.35	14.496	-18.438	55.85	0.46	2.668	1.385	160.62		-0.71	0.000
295.62	14.433	-18.666	55.92	0.46	2.620	1.358	135.37		-0.71	0.000
295.89	14.340	-18.858	56.01	0.46	2.537	1.324	116.22		-0.71	0.000
296.16	14.246	-18.990	56.10	0.46	2.458	1.282	74.43		-0.71	0.000
296.43	14.181	-19.075	56.17	0.46	2.385	1.243	47.64		-0.71	0.000
296.70	14.085	-19.111	56.26	0.46	2.322	1.208	-6.06		-0.71	0.000
296.97	13.990	-19.099	56.36	0.46	2.264	1.181	-25.61		-0.71	0.000
297.24	13.894	-19.038	56.46	0.46	2.227	1.167	-49.83		-0.71	0.000
297.51	13.833	-18.930	56.52	0.46	2.202	1.139	-59.94		-0.71	0.000
297.78	13.738	-18.762	56.61	0.46	2.166	1.120	-81.13		-0.71	0.000
298.06	13.646	-18.558	56.70	0.46	2.141	1.097	-97.34		-0.71	0.000
298.32	13.584	-18.293	56.77	0.46	2.110	1.079	-94.43		-0.71	0.000
298.59	13.492	-17.981	56.86	0.46	2.083	1.059	-74.16		-0.71	0.000
298.87	13.403	-17.632	56.95	0.47	2.066	1.043	-7.93		-0.71	0.000
299.14	13.346	-17.236	57.00	0.47	2.045	1.031	36.28		-0.71	0.000
299.41	13.261	-16.791	57.09	0.47	2.033	1.020	119.26		-0.71	0.000
299.68	13.179	-16.298	57.17	0.47	2.030	1.015	145.81		-0.71	0.000
299.95	13.124	-15.781	57.23	0.47	2.016	1.008	158.11		-0.71	0.000
300.22	13.047	-15.204	57.30	0.47	2.006	1.001	151.00		-0.71	0.000
300.49	12.970	-14.591	57.38	0.47	1.996	0.997	128.80		-0.71	0.000
300.76	12.901	-13.954	57.45	0.47	1.997	0.993	116.42		-0.71	0.000
301.03	12.855	-13.269	57.50	0.47	1.985	0.990	102.95		-0.71	0.000
301.30	12.792	-12.548	57.56	0.47	1.980	0.985	92.13		-0.71	0.000
301.57	12.730	-11.791	57.62	0.47	1.970	0.981	73.28		-0.71	0.000
301.83	12.693	-11.010	57.66	0.47	1.971	0.979	68.53		-0.71	0.000
302.11	12.638	-10.204	57.71	0.47	1.964	0.979	57.71		-0.71	0.000
302.37	12.591	-9.387	57.76	0.47	1.960	0.976	51.83		-0.71	0.000
302.64	12.560	-8.522	57.79	0.47	1.956	0.973	30.55		-0.71	0.000
302.91	12.519	-7.656	57.83	0.47	1.951	0.971	24.20		-0.71	0.000
303.17	12.484	-6.755	57.87	0.47	1.948	0.971	5.20		-0.71	0.000
303.44	12.464	-5.841	57.89	0.47	1.943	0.969	-6.20		-0.71	0.000
303.72	12.438	-4.928	57.91	0.47	1.947	0.968	-25.58		-0.71	0.000
303.99	12.416	-3.978	57.93	0.47	1.948	0.966	-33.14		-0.71	0.000
304.26	12.406	-3.005	57.94	0.47	1.942	0.965	-32.58		-0.71	0.000
304.52	12.396	-2.043	57.95	0.47	1.940	0.965	-30.32		-0.71	0.000
304.80	12.389	-1.070	57.96	0.47	1.941	0.966	-23.20		-0.71	0.000
305.06	12.387	-0.108	57.96	0.47	1.941	0.965	-11.11		-0.71	0.000
305.32	12.385	0.853	57.96	0.47	1.937	0.964	7.54		-0.71	0.000
305.58	12.385	1.803	57.96	0.47	1.944	0.964	66.82		-0.71	0.000
305.84	12.385	2.728	57.96	0.47	1.942	0.964	94.99		-0.71	0.000
306.11	12.397	3.666	57.95	0.47	1.942	0.966	138.90		-0.71	0.000
306.37	12.416	4.579	57.93	0.47	1.940	0.968	133.28		-0.71	0.000
306.64	12.442	5.517	57.91	0.47	1.941	0.969	96.45		-0.71	0.000
306.91	12.471	6.406	57.88	0.47	1.937	0.970	73.60		-0.71	0.000
307.18	12.494	7.320	57.86	0.47	1.939	0.971	34.28		-0.71	0.000
307.44	12.534	8.209	57.82	0.47	1.941	0.971	14.78		-0.71	0.000
307.71	12.576	9.050	57.77	0.47	1.937	0.971	-14.78		-0.71	0.000
307.98	12.608	9.892	57.74	0.47	1.945	0.972	-26.37		-0.71	0.000
308.25	12.661	10.709	57.69	0.47	1.946	0.973	-49.75		-0.71	0.000
308.52	12.716	11.490	57.63	0.47	1.949	0.975	-66.64		-0.71	0.000
308.79	12.756	12.260	57.59	0.47	1.948	0.977	-112.28		-0.71	0.000
309.06	12.817	12.993	57.53	0.47	1.949	0.979	-116.16		-0.71	0.000
309.34	12.883	13.678	57.47	0.47	1.949	0.979	-96.06		-0.71	0.000
309.61	12.955	14.351	57.40	0.47	1.958	0.982	-75.33		-0.71	0.000
309.87	13.003	14.976	57.35	0.47	1.958	0.983	-38.16		-0.71	0.000
310.14	13.079	15.565	57.27	0.47	1.968	0.988	-23.42		-0.71	0.000
310.41	13.158	16.094	57.19	0.47	1.969	0.992	-7.58		-0.71	0.000
310.68	13.214	16.611	57.14	0.47	1.975	0.996	-19.56		-0.71	0.000
310.94	13.297	17.067	57.05	0.47	1.985	1.001	-76.11		-0.71	0.000
311.22	13.383	17.476	56.97	0.47	1.987	1.006	-111.64		-0.71	0.000
311.49	13.442	17.837	56.91	0.47	1.995	1.010	-182.35		-0.71	0.000
311.75	13.533	18.173	56.82	0.46	2.005	1.012	-215.01		-0.71	0.000
312.02	13.624	18.450	56.73	0.46	2.018	1.017	-245.95		-0.71	0.000
312.30	13.688	18.678	56.66	0.46	2.046	1.025	-265.31		-0.71	0.000
312.57	13.780	18.858	56.57	0.46	2.063	1.035	-265.07		-0.71	0.000
312.85	13.875	18.990	56.47	0.46	2.095	1.052	-250.76		-0.71	0.000
313.11	13.938	19.075	56.41	0.46	2.120	1.068	-266.10		-0.71	0.000
313.38	14.035	19.111	56.31	0.46	2.135	1.088	-279.83		-0.72	0.000
313.65	14.129	19.099	56.22	0.46	2.167	1.106	-287.27		-0.72	0.000
313.92	14.224	19.026	56.13	0.46	2.196	1.128	-285.72		-0.72	0.000
314.19	14.288	18.918	56.06	0.46	2.237	1.149	-282.86		-0.72	0.000
314.46	14.383	18.750	55.97	0.46	2.276	1.163	-243.07		-0.72	0.000
314.73	14.475	18.546	55.87	0.46	2.320	1.189	-216.75		-0.72	0.000
315.01	14.537	18.281	55.81	0.46	2.368	1.220	-171.09		-0.72	0.000
315.28	14.628	17.981	55.72	0.46	2.401	1.253	-156.29		-0.72	0.000
315.55	14.716	17.608	55.63	0.45	2.446	1.292	-178.40		-0.72	0.000
315.82	14.774	17.212	55.58	0.45	2.501	1.326	-201.80		-0.72	0.000
316.09	14.860	16.755	55.49	0.45	2.559	1.365	-236.95		-0.72	0.000
316.36	14.943	16.274	55.41	0.45	2.620	1.402	-252.50		-0.72	0.000
316.64	15.020	15.733	55.33	0.45	2.687	1.441	-262.39		-0.72	0.000
316.91	15.074	15.168	55.28	0.45	2.752	1.462	-271.59		-0.72	0.000
317.18	15.147	14.543	55.20	0.45	2.810	1.502	-273.56		-0.72	0.000
317.45	15.216	13.894	55.13	0.45	2.874	1.544	-278.11		-0.72	0.000
317.73	15.263	13.197	55.09	0.45	2.895	1.585	-281.47		-0.72	0.000
317.99	15.328	12.476	55.02	0.45	2.955	1.623	-275.36		-0.72	0.000
318.27	15.388	11.707	54.96	0.45	3.008	1.665	-244.83		-0.72	0.000
318.54	15.426	10.925	54.92	0.45	3.064	1.700	-230.01		-0.72	0.000
318.81	15.478	10.096	54.87	0.45	3.119	1.738	-206.27		-0.72	0.000
319.08	15.526	9.267	54.82	0.45	3.173	1.774	-196.44		-0.72	0.000
319.35	15.570	8.401	54.78	0.45	3.218	1.789	-173.99		-0.72	0.000
319.62	15.598	7.524	54.75	0.45	3.259	1.825	-172.80		-0.72	0.000
319.89	15.630	6.611	54.72	0.45	3.276	1.856	-185.82		-0.72	0.000
320.17	15.660	5.685	54.69	0.45	3.311	1.885	-210.41		-0.72	0.000
320.44	15.678	4.748	54.67	0.45	3.326	1.909	-237.74		-0.72	0.000
320.72	15.698	3.762	54.65	0.45	3.349	1.929	-299.97		-0.72	0.000
320.99	15.713	2.812	54.64	0.45	3.363	1.945	-329.22		-0.72	0.000
321.26	15.722	1.815	54.63	0.45	3.371	1.957	-339.71		-0.72	0.000
321.53	15.725	0.829	54.62	0.45	3.364	1.962	-317.53		-0.72	0.000
321.80	15.728	-0.132	54.62	0.45	3.371	1.964	-247.85		-0.72	0.000
322.07	15.728	-1.106	54.62	0.45	3.353	1.965	-205.29		-0.72	0.000
322.34	15.728	-2.067	54.62	0.45	3.353	1.960	-140.74		-0.72	0.000
322.61	15.728	-3.029	54.62	0.45	3.345	1.956	-118.67		-0.72	0.000
322.88	15.707	-3.978	54.64	0.45	3.336	1.950	-90.03		-0.72	0.000
323.15	15.692	-4.928	54.66	0.45	3.333	1.945	-84.09		-0.72	0.000
323.43	15.663	-5.877	54.69	0.45	3.320	1.939	-81.28		-0.72	0.000
323.71	15.631	-6.791	54.72	0.45	3.298	1.931	-87.63		-0.72	0.000
323.98	15.596	-7.716	54.75	0.45	3.280	1.916	-136.01		-0.72	0.000
324.26	15.567	-8.630	54.78	0.45	3.245	1.896	-166.36		-0.72	0.000
324.54	15.521	-9.495	54.83	0.45	3.222	1.886	-210.56		-0.72	0.000
324.81	15.472	-10.337	54.88	0.45	3.185	1.855	-230.09		-0.72	0.000
325.09	15.419	-11.178	54.93	0.45	3.162	1.824	-251.97		-0.72	0.000
325.36	15.380	-11.959	54.97	0.45	3.122	1.788	-250.62		-0.72	0.000
325.64	15.317	-12.728	55.03	0.45	3.074	1.748	-202.58		-0.72	0.000
325.91	15.252	-13.438	55.10	0.45	3.033	1.700	-168.04		-0.72	0.000
326.18	15.181	-14.135	55.17	0.45	3.020	1.648	-98.58		-0.72	0.000
326.45	15.135	-14.760	55.21	0.45	3.008	1.612	-69.02		-0.72	0.000
326.72	15.061	-15.373	55.29	0.45	2.983	1.592	1.49		-0.72	0.000
326.98	14.980	-15.937	55.37	0.45	2.939	1.576	39.03		-0.72	0.000
327.26	14.926	-16.454	55.42	0.45	2.916	1.564	56.36		-0.72	0.000
327.52	14.844	-16.911	55.51	0.45	2.869	1.532	44.38		-0.72	0.000
327.79	14.758	-17.344	55.59	0.45	2.828	1.498	5.15		-0.72	0.000
328.06	14.699	-17.716	55.65	0.45	2.786	1.460	-13.81		-0.72	0.000
328.33	14.610	-18.065	55.74	0.46	2.740	1.427	-53.03		-0.72	0.000
328.60	14.519	-18.353	55.83	0.46	2.712	1.398	-82.69		-0.72	0.000
328.87	14.457	-18.606	55.89	0.46	2.627	1.373	-169.36		-0.72	0.000
329.15	14.365	-18.798	55.99	0.46	2.584	1.342	-212.22		-0.72	0.000
329.42	14.270	-18.954	56.08	0.46	2.506	1.321	-270.30		-0.72	0.000
329.69	14.206	-19.050	56.14	0.46	2.419	1.281	-288.25		-0.72	0.000
329.97	14.111	-19.111	56.24	0.46	2.356	1.241	-309.87		-0.72	0.000
330.24	14.016	-19.111	56.33	0.46	2.295	1.208	-319.33		-0.72	0.000
330.51	13.920	-19.050	56.43	0.46	2.243	1.181	-320.09		-0.72	0.000
330.79	13.856	-18.954	56.49	0.46	2.205	1.152	-320.37		-0.72	0.000
331.06	13.762	-18.798	56.59	0.46	2.158	1.128	-311.46		-0.72	0.000
331.33	13.669	-18.606	56.68	0.46	2.128	1.103	-299.82		-0.72	0.000
331.61	13.607	-18.353	56.74	0.46	2.099	1.083	-257.04		-0.72	0.000
331.88	13.515	-18.053	56.84	0.46	2.084	1.064	-231.50		-0.72	0.000
332.15	13.426	-17.704	56.92	0.47	2.067	1.047	-181.67		-0.72	0.000
332.42	13.338	-17.320	57.01	0.47	2.039	1.039	-173.53		-0.72	0.000
332.69	13.283	-16.875	57.07	0.47	2.025	1.028	-157.99		-0.72	0.000
332.96	13.199	-16.394	57.15	0.47	2.009	1.015	-140.07		-0.72	0.000
333.24	13.117	-15.877	57.23	0.47	2.002	1.008	-83.55		-0.72	0.000
333.51	13.066	-15.312	57.28	0.47	1.986	0.999	-52.71		-0.72	0.000
333.78	12.989	-14.687	57.36	0.47	1.978	0.993	-0.69		-0.72	0.000
334.05	12.919	-14.063	57.43	0.47	1.975	0.985	14.20		-0.72	0.000
334.31	12.874	-13.377	57.48	0.47	1.964	0.980	19.09		-0.72	0.000
334.58	12.807	-12.668	57.54	0.47	1.964	0.979	10.10		-0.72	0.000
334.85	12.746	-11.947	57.60	0.47	1.954	0.976	-21.63		-0.72	0.000
335.12	12.706	-11.178	57.64	0.47	1.943	0.973	-43.26		-0.72	0.000
335.39	12.651	-10.361	57.70	0.47	1.943	0.971	-84.48		-0.72	0.000
335.67	12.601	-9.543	57.75	0.47	1.937	0.967	-109.10		-0.72	0.000
335.93	12.556	-8.678	57.79	0.47	1.933	0.962	-174.26		-0.72	0.000
336.21	12.528	-7.776	57.82	0.47	1.920	0.960	-206.13		-0.72	0.000
336.48	12.492	-6.887	57.86	0.47	1.922	0.959	-257.25		-0.72	0.000
336.76	12.462	-5.950	57.89	0.47	1.923	0.959	-267.06		-0.72	0.000
337.03	12.444	-5.012	57.91	0.47	1.921	0.957	-261.13		-0.72	0.000
337.30	12.419	-4.050	57.93	0.47	1.915	0.957	-248.68		-0.72	0.000
337.57	12.405	-3.077	57.95	0.47	1.913	0.957	-213.61		-0.72	0.000
337.85	12.393	-2.115	57.96	0.47	1.912	0.957	-195.86		-0.72	0.000
338.12	12.385	-1.130	57.96	0.47	1.915	0.957	-160.44		-0.72	0.000
338.38	12.385	-0.156	57.96	0.47	1.912	0.957	-141.15		-0.72	0.000
338.65	12.385	0.805	57.96	0.47	1.914	0.958	-105.49		-0.72	0.000
338.92	12.385	1.755	57.96	0.47	1.911	0.959	-92.11		-0.72	0.000
339.18	12.385	2.716	57.96	0.47	1.913	0.961	-94.34		-0.72	0.000
339.45	12.397	3.666	57.95	0.47	1.916	0.961	-111.53		-0.72	0.000
339.72	12.416	4.603	57.93	0.47	1.913	0.963	-160.61		-0.72	0.000
339.99	12.442	5.517	57.91	0.47	1.913	0.963	-185.58		-0.72	0.000
340.27	12.471	6.454	57.88	0.47	1.915	0.963	-240.87		-0.72	0.000
340.53	12.494	7.368	57.86	0.47	1.909	0.963	-244.01		-0.72	0.000
340.81	12.534	8.269	57.82	0.47	1.919	0.964	-217.90		-0.72	0.000
341.07	12.579	9.123	57.77	0.47	1.917	0.965	-198.74		-0.72	0.000
341.35	12.611	9.976	57.74	0.47	1.917	0.965	-177.78		-0.72	0.000
341.61	12.662	10.781	57.69	0.47	1.919	0.965	-176.78		-0.72	0.000
341.89	12.719	11.587	57.63	0.47	1.921	0.966	-156.53		-0.72	0.000
342.16	12.779	12.344	57.57	0.47	1.929	0.968	-140.01		-0.72	0.000
342.43	12.820	13.065	57.53	0.47	1.920	0.970	-103.63		-0.72	0.000
342.70	12.888	13.762	57.46	0.47	1.928	0.972	-83.74		-0.72	0.000
342.97	12.958	14.423	57.39	0.47	1.935	0.976	-53.96		-0.72	0.000
343.24	13.008	15.048	57.34	0.47	1.941	0.979	-52.78		-0.72	0.000
343.50	13.083	15.625	57.27	0.47	1.944	0.983	-78.41		-0.72	0.000
343.78	13.164	16.166	57.19	0.47	1.949	0.984	-102.07		-0.72	0.000
344.04	13.219	16.659	57.13	0.47	1.953	0.988	-141.60		-0.72	0.000
344.32	13.303	17.115	57.05	0.47	1.963	0.993	-159.52		-0.72	0.000
344.59	13.389	17.524	56.96	0.47	1.966	0.999	-161.12		-0.72	0.000
344.87	13.448	17.885	56.90	0.47	1.979	1.006	-162.45		-0.72	0.000
345.13	13.539	18.209	56.81	0.46	1.988	1.012	-167.09		-0.72	0.000
345.41	13.632	18.486	56.72	0.46	2.003	1.019	-179.84		-0.72	0.000
345.68	13.724	18.714	56.63	0.46	2.028	1.029	-219.73		-0.72	0.000
345.95	13.788	18.894	56.56	0.46	2.050	1.040	-232.90		-0.72	0.000
346.22	13.880	19.014	56.47	0.46	2.076	1.053	-225.41		-0.72	0.000
346.49	13.976	19.087	56.37	0.46	2.109	1.064	-204.03		-0.72	0.000
346.76	14.042	19.111	56.31	0.46	2.121	1.082	-174.54		-0.72	0.000
347.03	14.135	19.087	56.21	0.46	2.156	1.101	-166.73		-0.72	0.000
347.30	14.231	19.014	56.12	0.46	2.191	1.126	-159.04		-0.72	0.000
347.57	14.294	18.894	56.06	0.46	2.225	1.149	-156.82		-0.72	0.000
347.84	14.388	18.726	55.96	0.46	2.268	1.176	-145.75		-0.72	0.000
348.12	14.481	18.498	55.87	0.46	2.312	1.205	-140.81		-0.72	0.000
348.39	14.542	18.233	55.81	0.46	2.364	1.235	-99.45		-0.72	0.000
348.66	14.634	17.909	55.72	0.46	2.419	1.251	-83.47		-0.72	0.000
348.93	14.721	17.548	55.63	0.45	2.441	1.290	-60.41		-0.72	0.000
349.20	14.808	17.139	55.54	0.45	2.498	1.327	-57.12		-0.72	0.000
349.47	14.865	16.683	55.49	0.45	2.551	1.364	-55.77		-0.72	0.000
349.73	14.946	16.190	55.40	0.45	2.613	1.402	-16.20		-0.72	0.000
350.00	15.025	15.661	55.32	0.45	2.681	1.441	5.56		-0.72	0.000
350.27	15.076	15.084	55.27	0.45	2.739	1.476	29.89		-0.72	0.000
350.53	15.152	14.471	55.20	0.45	2.805	1.516	24.14		-0.72	0.000
350.80	15.221	13.822	55.13	0.45	2.841	1.540	7.68		-0.72	0.000
351.06	15.266	13.149	55.08	0.45	2.899	1.582	8.16		-0.72	0.000
351.33	15.330	12.428	55.02	0.45	2.958	1.621	20.18		-0.72	0.000
351.59	15.371	11.695	54.98	0.45	3.018	1.662	32.98		-0.72	0.000
351.86	15.429	10.925	54.92	0.45	3.082	1.703	44.39		-0.72	0.000
352.13	15.479	10.144	54.87	0.45	3.125	1.743	46.63		-0.72	0.000
352.39	15.512	9.315	54.84	0.45	3.180	1.759	50.19		-0.72	0.000
352.66	15.557	8.438	54.79	0.45	3.208	1.798	51.00		-0.72	0.000
352.93	15.596	7.572	54.75	0.45	3.241	1.832	51.82		-0.72	0.000
353.19	15.621	6.671	54.73	0.45	3.287	1.866	51.97		-0.72	0.000
353.46	15.652	5.769	54.70	0.45	3.313	1.895	52.11		-0.72	0.000
353.72	15.675	4.856	54.67	0.45	3.337	1.920	52.13		-0.72	0.000
353.99	15.688	3.918	54.66	0.45	3.363	1.941	48.57		-0.72	0.000
354.25	15.706	2.981	54.64	0.45	3.370	1.951	43.12		-0.72	0.000
354.52	15.713	2.031	54.64	0.45	3.387	1.966	28.19		-0.72	0.000
354.79	15.724	1.082	54.63	0.45	3.381	1.973	1.63		-0.72	0.000
355.05	15.724	0.120	54.63	0.45	3.380	1.982	-8.07		-0.72	0.000
355.32	15.724	-0.817	54.63	0.45	3.381	1.984	-29.61		-0.72	0.000
355.59	15.724	-1.767	54.63	0.45	3.365	1.979	-42.32		-0.72	0.000
355.86	15.724	-2.728	54.63	0.45	3.359	1.973	-51.66		-0.72	0.000
356.13	15.707	-3.690	54.64	0.45	3.360	1.968	-35.97		-0.72	0.000
356.40	15.696	-4.651	54.65	0.45	3.354	1.965	-3.13		-0.72	0.000
356.66	15.667	-5.565	54.68	0.45	3.348	1.960	0.91		-0.72	0.000
356.95	15.638	-6.514	54.71	0.45	3.329	1.952	-9.19		-0.72	0.000
357.22	15.612	-7.392	54.74	0.45	3.306	1.945	-7.95		-0.72	0.000
357.49	15.574	-8.317	54.78	0.45	3.284	1.925	27.53		-0.72	0.000
357.75	15.529	-9.171	54.82	0.45	3.258	1.902	57.30		-0.72	0.000
358.03	15.498	-10.024	54.85	0.45	3.220	1.876	89.54		-0.72	0.000
358.30	15.446	-10.829	54.90	0.45	3.206	1.845	96.19		-0.72	0.000
358.58	15.390	-11.647	54.96	0.45	3.161	1.809	101.23		-0.72	0.000
358.85	15.329	-12.404	55.02	0.45	3.115	1.787	96.73		-0.72	0.000
359.12	15.288	-13.137	55.06	0.45	3.067	1.743	80.34		-0.72	0.000
359.39	15.219	-13.834	55.13	0.45	3.023	1.693	79.73		-0.72	0.000
359.66	15.149	-14.483	55.20	0.45	3.011	1.642	103.15		-0.72	0.000
359.93	15.099	-15.096	55.25	0.45	2.999	1.605	115.38		-0.72	0.000
360.19	15.022	-15.673	55.33	0.45	2.979	1.587	129.22		-0.72	0.000
360.47	14.943	-16.202	55.41	0.45	2.951	1.571	132.27		-0.72	0.000
360.74	14.889	-16.695	55.46	0.45	2.905	1.546	95.78		-0.72	0.000
361.01	14.805	-17.163	55.55	0.45	2.861	1.531	79.13		-0.72	0.000
361.29	14.717	-17.560	55.63	0.45	2.816	1.496	63.04		-0.72	0.000
361.55	14.629	-17.921	55.72	0.46	2.778	1.461	65.34		-0.72	0.000
361.82	14.569	-18.245	55.78	0.46	2.740	1.430	77.78		-0.72	0.000
362.09	14.476	-18.510	55.87	0.46	2.675	1.401	88.51		-0.72	0.000
362.36	14.383	-18.726	55.97	0.46	2.581	1.377	92.98		-0.72	0.000
362.63	14.321	-18.894	56.03	0.46	2.543	1.337	87.00		-0.72	0.000
362.90	14.226	-19.014	56.12	0.46	2.457	1.299	34.33		-0.72	0.000
363.17	14.131	-19.087	56.22	0.46	2.385	1.259	-4.95		-0.72	0.000
363.44	14.066	-19.111	56.28	0.46	2.323	1.241	-80.26		-0.72	0.000
363.71	13.971	-19.087	56.38	0.46	2.260	1.211	-91.97		-0.72	0.000
363.99	13.875	-19.014	56.47	0.46	2.219	1.178	-95.88		-0.72	0.000
364.26	13.814	-18.882	56.54	0.46	2.172	1.152	-104.42		-0.72	0.000
364.54	13.720	-18.702	56.63	0.46	2.134	1.128	-133.92		-0.72	0.000
364.81	13.626	-18.486	56.72	0.46	2.124	1.106	-159.76		-0.72	0.000
365.08	13.534	-18.197	56.82	0.46	2.092	1.085	-215.69		-0.72	0.000
365.35	13.474	-17.885	56.88	0.47	2.067	1.066	-230.07		-0.72	0.000
365.63	13.385	-17.500	56.96	0.47	2.044	1.052	-237.96		-0.72	0.000
365.90	13.298	-17.103	57.05	0.47	2.017	1.044	-227.40		-0.72	0.000
366.18	13.243	-16.623	57.11	0.47	2.005	1.027	-184.55		-0.72	0.000
366.44	13.161	-16.118	57.19	0.47	1.987	1.014	-156.62		-0.72	0.000
366.71	13.083	-15.565	57.27	0.47	1.977	1.005	-107.24		-0.72	0.000
366.99	13.006	-14.988	57.34	0.47	1.964	0.998	-80.77		-0.72	0.000
367.26	12.956	-14.363	57.39	0.47	1.959	0.990	-26.16		-0.72	0.000
367.52	12.885	-13.690	57.46	0.47	1.952	0.986	-1.26		-0.72	0.000
367.79	12.819	-13.005	57.53	0.47	1.939	0.981	44.53		-0.72	0.000
368.06	12.778	-12.284	57.57	0.47	1.932	0.978	59.72		-0.72	0.000
368.33	12.719	-11.514	57.63	0.47	1.925	0.976	74.54		-0.72	0.000
368.60	12.662	-10.733	57.69	0.47	1.928	0.972	68.09		-0.72	0.000
368.87	12.629	-9.904	57.72	0.47	1.913	0.968	29.84		-0.72	0.000
369.13	12.580	-9.075	57.77	0.47	1.916	0.966	2.75		-0.72	0.000
369.41	12.538	-8.197	57.81	0.47	1.910	0.965	-54.71		-0.72	0.000
369.67	12.512	-7.344	57.84	0.47	1.899	0.963	-77.54		-0.72	0.000
369.94	12.478	-6.418	57.87	0.47	1.897	0.960	-121.30		-0.72	0.000
370.22	12.450	-5.505	57.90	0.47	1.892	0.959	-139.92		-0.72	0.000
370.49	12.432	-4.579	57.92	0.47	1.895	0.958	-157.63		-0.72	0.000
370.76	12.414	-3.606	57.94	0.47	1.891	0.957	-160.78		-0.72	0.000
371.03	12.398	-2.632	57.95	0.47	1.892	0.956	-188.76		-0.72	0.000
371.30	12.388	-1.659	57.96	0.47	1.887	0.955	-206.91		-0.72	0.000
371.57	12.384	-0.685	57.97	0.47	1.881	0.955	-233.05		-0.72	0.000
371.84	12.384	0.276	57.97	0.47	1.889	0.955	-246.60		-0.72	0.000
372.11	12.384	1.250	57.97	0.47	1.889	0.954	-256.66		-0.72	0.000
372.37	12.384	2.212	57.97	0.47	1.884	0.954	-272.69		-0.72	0.000
372.63	12.385	3.161	57.96	0.47	1.892	0.954	-325.22		-0.72	0.000
372.90	12.408	4.087	57.94	0.47	1.889	0.955	-355.59		-0.72	0.000
373.16	12.424	5.012	57.93	0.47	1.891	0.956	-387.08		-0.72	0.000
373.44	12.453	5.938	57.90	0.47	1.895	0.958	-383.39		-0.72	0.000
373.70	12.474	6.827	57.88	0.47	1.895	0.960	-370.87		-0.72	0.000
373.97	12.511	7.740	57.84	0.47	1.894	0.960	-309.21		-0.72	0.000
374.25	12.552	8.606	57.80	0.47	1.895	0.962	-249.56		-0.72	0.000
374.52	12.598	9.459	57.75	0.47	1.894	0.962	-224.67		-0.72	0.000
374.79	12.629	10.313	57.72	0.47	1.900	0.962	-191.72		-0.72	0.000
375.06	12.683	11.118	57.67	0.47	1.891	0.962	-182.81		-0.72	0.000
375.33	12.742	11.899	57.61	0.47	1.898	0.962	-173.81		-0.72	0.000
375.60	12.783	12.644	57.57	0.47	1.904	0.965	-150.18		-0.72	0.000
375.86	12.848	13.341	57.50	0.47	1.903	0.967	-129.56		-0.72	0.000
376.14	12.916	14.038	57.43	0.47	1.905	0.969	-112.70		-0.72	0.000
376.41	12.962	14.663	57.39	0.47	1.913	0.975	-128.19		-0.72	0.000
376.68	13.038	15.276	57.31	0.47	1.915	0.979	-188.35		-0.72	0.000
376.95	13.116	15.841	57.23	0.47	1.921	0.980	-220.61		-0.72	0.000
377.23	13.197	16.370	57.15	0.47	1.927	0.984	-234.78		-0.72	0.000
377.50	13.252	16.851	57.10	0.47	1.937	0.987	-216.03		-0.72	0.000
377.77	13.338	17.308	57.01	0.47	1.945	0.990	-144.05		-0.72	0.000
378.04	13.425	17.692	56.92	0.47	1.956	0.997	-114.11		-0.72	0.000
378.31	13.484	18.041	56.87	0.46	1.965	1.006	-72.17		-0.72	0.000
378.58	13.575	18.329	56.77	0.46	1.983	1.014	-70.38		-0.72	0.000
378.85	13.667	18.582	56.68	0.46	2.004	1.022	-68.93		-0.72	0.000
379.11	13.730	18.786	56.62	0.46	2.022	1.032	-67.65		-0.72	0.000
379.39	13.826	18.942	56.52	0.46	2.041	1.041	-63.26		-0.72	0.000
379.66	13.920	19.050	56.43	0.46	2.066	1.057	-55.03		-0.72	0.000
379.93	13.983	19.099	56.37	0.46	2.100	1.077	-45.05		-0.72	0.000
380.20	14.080	19.111	56.27	0.46	2.133	1.096	-42.46		-0.72	0.000
380.47	14.174	19.063	56.18	0.46	2.170	1.120	-45.13		-0.72	0.000
380.73	14.239	18.978	56.11	0.46	2.205	1.144	-49.36		-0.72	0.000
381.01	14.333	18.834	56.02	0.46	2.240	1.170	-35.96		-0.72	0.000
381.27	14.425	18.642	55.92	0.46	2.276	1.201	-20.95		-0.72	0.000
381.54	14.488	18.401	55.86	0.46	2.315	1.213	16.27		-0.72	0.000
381.80	14.580	18.125	55.77	0.46	2.367	1.243	26.23		-0.72	0.000
382.07	14.670	17.800	55.68	0.46	2.424	1.279	37.59		-0.72	0.000
382.34	14.726	17.428	55.62	0.45	2.475	1.312	32.99		-0.72	0.000
382.61	14.815	17.007	55.54	0.45	2.530	1.350	13.10		-0.72	0.000
382.87	14.896	16.550	55.45	0.45	2.591	1.387	-2.14		-0.72	0.000
383.14	14.952	16.046	55.40	0.45	2.622	1.423	-22.34		-0.72	0.000
383.41	15.031	15.505	55.32	0.45	2.686	1.445	-26.56		-0.72	0.000
383.68	15.106	14.916	55.24	0.45	2.754	1.487	-23.29		-0.72	0.000
383.95	15.156	14.291	55.19	0.45	2.821	1.525	-19.96		-0.72	0.000
384.21	15.225	13.630	55.12	0.45	2.877	1.568	-43.94		-0.72	0.000
384.48	15.290	12.933	55.06	0.45	2.947	1.611	-62.29		-0.72	0.000
384.75	15.334	12.212	55.02	0.45	3.009	1.651	-119.35		-0.72	0.000
385.02	15.392	11.454	54.96	0.45	3.033	1.690	-144.94		-0.72	0.000
385.30	15.447	10.649	54.90	0.45	3.094	1.729	-177.52		-0.72	0.000
385.56	15.483	9.832	54.87	0.45	3.139	1.747	-181.02		-0.72	0.000
385.83	15.531	8.978	54.82	0.45	3.198	1.785	-171.87		-0.72	0.000
386.11	15.572	8.113	54.78	0.45	3.256	1.824	-175.30		-0.72	0.000
386.38	15.611	7.224	54.74	0.45	3.286	1.858	-228.36		-0.72	0.000
386.65	15.633	6.286	54.72	0.45	3.324	1.890	-274.13		-0.72	0.000
386.93	15.661	5.361	54.69	0.45	3.353	1.914	-355.36		-0.72	0.000
387.20	15.684	4.411	54.67	0.45	3.363	1.940	-370.37		-0.72	0.000
387.47	15.693	3.450	54.66	0.45	3.386	1.957	-341.01		-0.72	0.000
387.74	15.711	2.488	54.64	0.45	3.397	1.973	-300.84		-0.72	0.000
388.01	15.720	1.514	54.63	0.45	3.400	1.977	-199.18		-0.72	0.000
388.28	15.721	0.541	54.63	0.45	3.409	1.984	-166.58		-0.72	0.000
388.55	15.722	-0.433	54.63	0.45	3.401	1.985	-181.91		-0.72	0.000
388.82	15.722	-1.406	54.63	0.45	3.385	1.984	-218.07		-0.72	0.000
389.09	15.722	-2.368	54.63	0.45	3.389	1.980	-297.82		-0.72	0.000
389.36	15.721	-3.341	54.63	0.45	3.379	1.976	-310.66		-0.72	0.000
389.63	15.701	-4.279	54.65	0.45	3.379	1.971	-292.93		-0.72	0.000
389.90	15.674	-5.228	54.68	0.45	3.375	1.968	-276.46		-0.72	0.000
390.18	15.652	-6.154	54.70	0.45	3.359	1.962	-296.02		-0.72	0.000
390.45	15.621	-7.067	54.73	0.45	3.342	1.959	-333.29		-0.72	0.000
390.73	15.583	-7.993	54.77	0.45	3.315	1.944	-436.29		-0.72	0.000
391.01	15.539	-8.870	54.81	0.45	3.295	1.927	-480.88		-0.72	0.000
391.28	15.508	-9.748	54.84	0.45	3.259	1.901	-474.12		-0.72	0.000
391.55	15.457	-10.601	54.89	0.45	3.226	1.872	-433.70		-0.72	0.000
391.83	15.402	-11.394	54.95	0.45	3.174	1.840	-316.61		-0.72	0.000
392.11	15.342	-12.175	55.01	0.45	3.151	1.800	-249.96		-0.72	0.000
392.38	15.301	-12.921	55.05	0.45	3.110	1.756	-137.63		-0.72	0.000
392.66	15.235	-13.642	55.11	0.45	3.080	1.707	-90.48		-0.72	0.000
392.93	15.165	-14.315	55.19	0.45	3.066	1.673	-42.76		-0.72	0.000
393.20	15.116	-14.952	55.23	0.45	3.052	1.647	-29.52		-0.72	0.000
393.47	15.039	-15.541	55.31	0.45	3.016	1.638	-10.01		-0.72	0.000
393.74	14.961	-16.082	55.39	0.45	2.964	1.619	9.35		-0.72	0.000
394.01	14.880	-16.599	55.47	0.45	2.910	1.584	3.93		-0.72	0.000
394.28	14.821	-17.055	55.53	0.45	2.893	1.547	-13.63		-0.72	0.000
394.55	14.737	-17.464	55.61	0.45	2.848	1.509	-70.40		-0.72	0.000
394.82	14.647	-17.837	55.70	0.46	2.809	1.471	-110.90		-0.72	0.000
395.09	14.588	-18.173	55.76	0.46	2.760	1.441	-200.99		-0.72	0.000
395.37	14.496	-18.450	55.85	0.46	2.715	1.411	-247.99		-0.72	0.000
395.64	14.403	-18.678	55.95	0.46	2.625	1.387	-322.99		-0.72	0.000
395.91	14.342	-18.858	56.01	0.46	2.539	1.369	-340.42		-0.72	0.000
396.19	14.247	-19.002	56.10	0.46	2.452	1.332	-362.79		-0.72	0.000
396.45	14.151	-19.075	56.20	0.46	2.368	1.294	-376.13		-0.72	0.000
396.73	14.056	-19.111	56.29	0.46	2.336	1.255	-426.80		-0.72	0.000
397.00	13.992	-19.099	56.36	0.46	2.272	1.221	-452.03		-0.72	0.000
397.28	13.897	-19.026	56.45	0.46	2.229	1.187	-470.06		-0.72	0.000
397.55	13.802	-18.906	56.55	0.46	2.185	1.161	-457.93		-0.72	0.000
397.82	13.739	-18.738	56.61	0.46	2.149	1.137	-420.55		-0.72	0.000
398.09	13.646	-18.522	56.70	0.46	2.120	1.115	-403.48		-0.72	0.000
398.37	13.553	-18.257	56.80	0.46	2.085	1.094	-362.33		-0.72	0.000
398.65	13.464	-17.945	56.89	0.47	2.064	1.076	-333.86		-0.72	0.000
398.93	13.406	-17.560	56.94	0.47	2.036	1.066	-278.35		-0.72	0.000
399.19	13.317	-17.151	57.03	0.47	2.017	1.053	-261.44		-0.72	0.000
399.47	13.235	-16.695	57.11	0.47	2.005	1.040	-244.50		-0.72	0.000
399.74	13.152	-16.202	57.20	0.47	1.984	1.027	-241.17		-0.72	0.000
400.01	13.097	-15.649	57.25	0.47	1.976	1.015	-255.56		-0.72	0.000
400.29	13.021	-15.072	57.33	0.47	1.960	1.007	-289.32		-0.72	0.000
400.56	12.948	-14.447	57.40	0.47	1.950	0.998	-367.59		-0.72	0.000
400.83	12.901	-13.774	57.45	0.47	1.938	0.989	-399.22		-0.72	0.000
401.10	12.834	-13.077	57.52	0.47	1.928	0.984	-452.42		-0.72	0.000
401.37	12.769	-12.356	57.58	0.47	1.919	0.980	-474.82		-0.72	0.000
401.65	12.711	-11.575	57.64	0.47	1.913	0.977	-526.06		-0.72	0.000
401.92	12.674	-10.805	57.68	0.47	1.906	0.974	-529.65		-0.72	0.000
402.20	12.621	-9.976	57.73	0.47	1.902	0.971	-488.19		-0.72	0.000
402.47	12.573	-9.123	57.78	0.47	1.894	0.969	-401.88		-0.72	0.000
402.74	12.544	-8.233	57.81	0.47	1.890	0.966	-346.37		-0.72	0.000
403.01	12.506	-7.344	57.84	0.47	1.883	0.963	-226.41		-0.72	0.000
403.28	12.473	-6.406	57.88	0.47	1.881	0.961	-168.25		-0.72	0.000
403.56	12.443	-5.493	57.91	0.47	1.875	0.958	-92.13		-0.72	0.000
403.83	12.426	-4.543	57.92	0.47	1.875	0.957	-68.17		-0.72	0.000
404.10	12.408	-3.570	57.94	0.47	1.869	0.956	-44.12		-0.72	0.000
404.37	12.393	-2.620	57.96	0.47	1.876	0.955	-36.91		-0.72	0.000
404.63	12.388	-1.647	57.96	0.47	1.876	0.955	-45.75		-0.72	0.000
404.90	12.383	-0.685	57.97	0.47	1.873	0.955	-75.91		-0.72	0.000
405.16	12.383	0.252	57.97	0.47	1.872	0.955	-85.67		-0.72	0.000
405.43	12.383	1.214	57.97	0.47	1.872	0.957	-106.56		-0.72	0.000
405.69	12.383	2.151	57.97	0.47	1.875	0.959	-117.39		-0.72	0.000
405.96	12.383	3.113	57.97	0.47	1.869	0.960	-153.47		-0.72	0.000
406.23	12.401	4.038	57.95	0.47	1.874	0.960	-173.05		-0.72	0.000
406.50	12.423	4.988	57.93	0.47	1.870	0.960	-182.11		-0.72	0.000
406.77	12.453	5.913	57.90	0.47	1.872	0.960	-168.92		-0.72	0.000
407.05	12.474	6.827	57.88	0.47	1.872	0.961	-124.36		-0.72	0.000
407.32	12.511	7.740	57.84	0.47	1.872	0.961	-95.53		-0.72	0.000
407.60	12.552	8.642	57.80	0.47	1.873	0.961	-33.45		-0.72	0.000
407.86	12.583	9.507	57.77	0.47	1.879	0.965	-11.27		-0.72	0.000
408.12	12.632	10.349	57.72	0.47	1.879	0.968	8.27		-0.72	0.000
408.39	12.685	11.130	57.66	0.47	1.877	0.969	5.22		-0.72	0.000
408.66	12.724	11.899	57.63	0.47	1.884	0.970	-13.55		-0.72	0.000
408.93	12.785	12.632	57.56	0.47	1.886	0.972	-13.71		-0.72	0.000
409.20	12.851	13.353	57.50	0.47	1.890	0.975	-17.29		-0.72	0.000
409.47	12.896	14.026	57.45	0.47	1.896	0.977	-18.05		-0.72	0.000
409.73	12.969	14.675	57.38	0.47	1.903	0.982	-34.75		-0.72	0.000
410.00	13.042	15.276	57.31	0.47	1.903	0.989	-44.87		-0.72	0.000
410.26	13.096	15.829	57.25	0.47	1.909	0.991	-74.59		-0.72	0.000
410.54	13.175	16.346	57.17	0.47	1.920	0.993	-94.74		-0.72	0.000
410.81	13.258	16.815	57.09	0.47	1.929	0.998	-144.38		-0.72	0.000
411.07	13.315	17.260	57.04	0.47	1.939	1.001	-163.53		-0.72	0.000
411.35	13.401	17.656	56.95	0.47	1.945	1.008	-204.45		-0.72	0.000
411.62	13.492	18.005	56.86	0.46	1.963	1.014	-220.15		-0.72	0.000
411.89	13.551	18.317	56.80	0.46	1.966	1.023	-260.17		-0.72	0.000
412.15	13.644	18.570	56.71	0.46	1.984	1.031	-285.92		-0.72	0.000
412.43	13.738	18.774	56.61	0.46	2.010	1.035	-315.10		-0.72	0.000
412.69	13.801	18.930	56.55	0.46	2.036	1.051	-322.16		-0.72	0.000
412.96	13.894	19.038	56.46	0.46	2.062	1.067	-322.17		-0.72	0.000
413.23	13.990	19.099	56.36	0.46	2.104	1.088	-303.42		-0.72	0.000
413.51	14.085	19.111	56.26	0.46	2.134	1.107	-260.58		-0.72	0.000
413.78	14.149	19.075	56.20	0.46	2.174	1.133	-243.02		-0.72	0.000
414.05	14.244	18.990	56.11	0.46	2.190	1.155	-221.33		-0.72	0.000
414.32	14.339	18.846	56.01	0.46	2.230	1.178	-219.69		-0.72	0.000
414.59	14.402	18.666	55.95	0.46	2.278	1.205	-194.61		-0.72	0.000
414.86	14.494	18.425	55.86	0.46	2.320	1.220	-173.99		-0.72	0.000
415.14	14.585	18.137	55.76	0.46	2.377	1.250	-123.16		-0.72	0.000
415.40	14.647	17.813	55.70	0.46	2.427	1.283	-102.02		-0.72	0.000
415.67	14.734	17.428	55.62	0.45	2.488	1.318	-59.73		-0.72	0.000
415.94	14.820	17.007	55.53	0.45	2.513	1.359	-45.11		-0.72	0.000
416.20	14.876	16.550	55.47	0.45	2.570	1.397	-37.35		-0.72	0.000
416.47	14.957	16.046	55.39	0.45	2.631	1.435	-21.75		-0.72	0.000
416.74	15.035	15.505	55.31	0.45	2.696	1.456	-7.88		-0.72	0.000
417.01	15.087	14.916	55.26	0.45	2.766	1.494	49.14		-0.72	0.000
417.28	15.160	14.303	55.19	0.45	2.834	1.536	88.84		-0.72	0.000
417.54	15.230	13.630	55.12	0.45	2.890	1.574	158.53		-0.72	0.000
417.81	15.275	12.945	55.07	0.45	2.930	1.621	190.19		-0.72	0.000
418.08	15.337	12.224	55.01	0.45	2.983	1.661	239.92		-0.72	0.000
418.34	15.396	11.466	54.95	0.45	3.043	1.702	256.91		-0.72	0.000
418.61	15.433	10.685	54.92	0.45	3.098	1.743	248.09		-0.72	0.000
418.88	15.483	9.880	54.87	0.45	3.157	1.760	233.27		-0.72	0.000
419.15	15.531	9.038	54.82	0.45	3.206	1.797	213.15		-0.72	0.000
419.43	15.561	8.173	54.79	0.45	3.257	1.830	216.82		-0.72	0.000
419.69	15.598	7.284	54.75	0.45	3.278	1.866	237.40		-0.72	0.000
419.97	15.631	6.346	54.72	0.45	3.315	1.900	246.31		-0.72	0.000
420.24	15.651	5.433	54.70	0.45	3.346	1.929	219.52		-0.72	0.000
420.51	15.675	4.495	54.67	0.45	3.376	1.952	189.86		-0.72	0.000
420.78	15.694	3.534	54.66	0.45	3.393	1.969	129.71		-0.72	0.000
421.05	15.710	2.572	54.64	0.45	3.406	1.977	91.18		-0.72	0.000
421.31	15.717	1.599	54.63	0.45	3.417	1.986	25.30		-0.72	0.000
421.58	15.719	0.625	54.63	0.45	3.412	1.995	-4.23		-0.72	0.000
421.85	15.720	-0.313	54.63	0.45	3.400	1.999	-64.80		-0.72	0.000
422.12	15.720	-1.262	54.63	0.45	3.407	1.999	-101.26		-0.72	0.000
422.39	15.720	-2.236	54.63	0.45	3.395	1.994	-165.88		-0.72	0.000
422.66	15.713	-3.197	54.64	0.45	3.382	1.987	-195.21		-0.72	0.000
422.93	15.702	-4.159	54.65	0.45	3.383	1.982	-225.16		-0.72	0.000
423.21	15.674	-5.096	54.68	0.45	3.378	1.979	-212.95		-0.72	0.000
423.48	15.647	-6.046	54.70	0.45	3.366	1.973	-173.13		-0.72	0.000
423.75	15.613	-6.971	54.74	0.45	3.337	1.968	-169.24		-0.72	0.000
424.03	15.590	-7.897	54.76	0.45	3.337	1.955	-193.62		-0.72	0.000
424.31	15.547	-8.774	54.80	0.45	3.310	1.939	-213.73		-0.72	0.000
424.58	15.502	-9.627	54.85	0.45	3.281	1.916	-243.88		-0.72	0.000
424.85	15.467	-10.493	54.88	0.45	3.248	1.887	-252.44		-0.72	0.000
425.13	15.413	-11.298	54.94	0.45	3.199	1.858	-254.30		-0.72	0.000
425.40	15.356	-12.067	54.99	0.45	3.158	1.818	-263.61		-0.72	0.000
425.68	15.293	-12.825	55.06	0.45	3.111	1.775	-287.13		-0.72	0.000
425.95	15.249	-13.546	55.10	0.45	3.067	1.727	-311.58		-0.72	0.000
426.23	15.180	-14.219	55.17	0.45	3.054	1.676	-353.80		-0.72	0.000
426.50	15.107	-14.868	55.24	0.45	3.040	1.659	-365.03		-0.72	0.000
426.77	15.031	-15.469	55.32	0.45	3.033	1.632	-318.96		-0.72	0.000
427.04	14.978	-16.022	55.37	0.45	2.994	1.616	-269.78		-0.72	0.000
427.32	14.897	-16.538	55.45	0.45	2.943	1.589	-156.75		-0.72	0.000
427.59	14.812	-16.995	55.54	0.45	2.901	1.557	-105.91		-0.72	0.000
427.86	14.757	-17.428	55.59	0.45	2.849	1.523	-32.75		-0.72	0.000
428.12	14.667	-17.813	55.68	0.46	2.807	1.490	0.79		-0.72	0.000
428.39	14.576	-18.137	55.77	0.46	2.760	1.458	65.28		-0.72	0.000
428.66	14.519	-18.413	55.83	0.46	2.717	1.445	98.30		-0.72	0.000
428.93	14.424	-18.654	55.93	0.46	2.660	1.419	156.93		-0.72	0.000
429.20	14.331	-18.834	56.02	0.46	2.567	1.391	171.35		-0.72	0.000
429.47	14.267	-18.978	56.08	0.46	2.477	1.346	175.18		-0.72	0.000
429.74	14.173	-19.075	56.18	0.46	2.399	1.306	170.95		-0.72	0.000
430.02	14.078	-19.111	56.27	0.46	2.327	1.264	164.78		-0.72	0.000
430.28	13.983	-19.099	56.37	0.46	2.266	1.230	165.80		-0.72	0.000
430.56	13.919	-19.038	56.43	0.46	2.226	1.198	165.11		-0.72	0.000
430.83	13.824	-18.930	56.53	0.46	2.184	1.171	154.36		-0.72	0.000
431.10	13.730	-18.774	56.62	0.46	2.160	1.157	98.71		-0.72	0.000
431.37	13.666	-18.570	56.68	0.46	2.124	1.131	72.01		-0.72	0.000
431.64	13.574	-18.317	56.78	0.46	2.094	1.110	13.23		-0.72	0.000
431.91	13.485	-18.005	56.86	0.46	2.064	1.089	-2.20		-0.72	0.000
432.18	13.424	-17.656	56.93	0.47	2.042	1.070	-16.68		-0.72	0.000
432.45	13.337	-17.272	57.01	0.47	2.015	1.053	-25.69		-0.72	0.000
432.72	13.251	-16.827	57.10	0.47	1.995	1.037	-61.70		-0.72	0.000
432.99	13.170	-16.334	57.18	0.47	1.979	1.023	-94.44		-0.72	0.000
433.27	13.116	-15.805	57.23	0.47	1.973	1.013	-161.05		-0.72	0.000
433.54	13.038	-15.240	57.31	0.47	1.958	1.008	-187.36		-0.72	0.000
433.81	12.964	-14.627	57.39	0.47	1.947	1.001	-205.57		-0.72	0.000
434.09	12.916	-13.978	57.43	0.47	1.929	0.992	-205.76		-0.72	0.000
434.36	12.847	-13.281	57.50	0.47	1.919	0.987	-209.40		-0.72	0.000
434.63	12.783	-12.560	57.57	0.47	1.911	0.984	-205.09		-0.72	0.000
434.91	12.723	-11.803	57.63	0.47	1.905	0.978	-203.45		-0.72	0.000
435.18	12.684	-11.010	57.67	0.47	1.901	0.972	-201.59		-0.72	0.000
435.45	12.633	-10.192	57.72	0.47	1.895	0.970	-212.01		-0.72	0.000
435.72	12.583	-9.363	57.77	0.47	1.891	0.966	-207.68		-0.72	0.000
436.00	12.552	-8.486	57.80	0.47	1.888	0.964	-181.36		-0.72	0.000
436.27	12.514	-7.596	57.84	0.47	1.878	0.963	-174.47		-0.73	0.000
436.54	12.478	-6.683	57.87	0.47	1.878	0.961	-149.20		-0.73	0.000
436.81	12.447	-5.745	57.90	0.47	1.866	0.960	-147.37		-0.73	0.000
437.09	12.432	-4.808	57.92	0.47	1.869	0.959	-137.49		-0.73	0.000
437.37	12.408	-3.858	57.94	0.47	1.862	0.957	-133.03		-0.73	0.000
437.64	12.396	-2.885	57.95	0.47	1.863	0.957	-126.51		-0.73	0.000
437.91	12.389	-1.887	57.96	0.47	1.860	0.956	-116.39		-0.73	0.000
438.18	12.382	-0.913	57.97	0.47	1.854	0.954	-82.55		-0.73	0.000
438.44	12.382	0.060	57.97	0.47	1.860	0.954	-51.12		-0.73	0.000
438.71	12.382	1.034	57.97	0.47	1.853	0.954	6.63		-0.73	0.000
438.97	12.382	1.971	57.97	0.47	1.857	0.953	34.46		-0.73	0.000
439.23	12.382	2.921	57.97	0.47	1.873	0.953	69.85		-0.73	0.000
439.50	12.396	3.846	57.95	0.47	1.862	0.953	65.42		-0.73	0.000
439.76	12.419	4.784	57.93	0.47	1.858	0.954	38.89		-0.73	0.000
440.03	12.444	5.685	57.91	0.47	1.863	0.956	12.87		-0.73	0.000
440.29	12.465	6.599	57.89	0.47	1.852	0.958	-37.44		-0.73	0.000
440.56	12.502	7.488	57.85	0.47	1.863	0.959	-58.36		-0.73	0.000
440.83	12.528	8.353	57.82	0.47	1.859	0.960	-117.59		-0.73	0.000
441.10	12.570	9.207	57.78	0.47	1.867	0.960	-155.81		-0.73	0.000
441.37	12.619	10.048	57.73	0.47	1.863	0.963	-241.95		-0.73	0.000
441.65	12.673	10.865	57.68	0.47	1.860	0.965	-282.59		-0.73	0.000
441.92	12.708	11.647	57.64	0.47	1.866	0.966	-334.34		-0.73	0.000
442.19	12.770	12.428	57.58	0.47	1.868	0.967	-346.06		-0.73	0.000
442.46	12.833	13.149	57.52	0.47	1.876	0.971	-343.20		-0.73	0.000
442.73	12.879	13.846	57.47	0.47	1.876	0.973	-333.58		-0.73	0.000
443.00	12.949	14.495	57.40	0.47	1.890	0.977	-314.22		-0.73	0.000
443.27	13.024	15.108	57.33	0.47	1.892	0.981	-307.19		-0.73	0.000
443.54	13.075	15.697	57.27	0.47	1.901	0.984	-312.69		-0.73	0.000
443.81	13.152	16.226	57.20	0.47	1.907	0.988	-310.29		-0.73	0.000
444.08	13.237	16.719	57.11	0.47	1.912	0.992	-312.76		-0.73	0.000
444.35	13.321	17.175	57.03	0.47	1.923	1.002	-316.04		-0.73	0.000
444.62	13.379	17.572	56.97	0.47	1.930	1.009	-329.69		-0.73	0.000
444.90	13.466	17.933	56.88	0.47	1.946	1.019	-350.07		-0.73	0.000
445.16	13.557	18.245	56.79	0.46	1.962	1.023	-373.38		-0.73	0.000
445.43	13.619	18.522	56.73	0.46	1.984	1.029	-383.06		-0.73	0.000
445.71	13.712	18.738	56.64	0.46	2.014	1.041	-398.19		-0.73	0.000
445.98	13.806	18.906	56.54	0.46	2.020	1.056	-405.91		-0.73	0.000
446.25	13.870	19.026	56.48	0.46	2.057	1.074	-442.26		-0.73	0.000
446.52	13.965	19.099	56.39	0.46	2.091	1.092	-456.08		-0.73	0.000
446.79	14.061	19.111	56.29	0.46	2.126	1.114	-485.88		-0.73	0.000
447.06	14.124	19.087	56.23	0.46	2.162	1.140	-486.01		-0.73	0.000
447.33	14.220	19.002	56.13	0.46	2.193	1.149	-459.92		-0.73	0.000
447.60	14.314	18.882	56.04	0.46	2.233	1.176	-430.21		-0.73	0.000
447.87	14.407	18.702	55.94	0.46	2.279	1.201	-351.49		-0.73	0.000
448.14	14.470	18.474	55.88	0.46	2.301	1.231	-309.87		-0.73	0.000
448.41	14.562	18.197	55.79	0.46	2.358	1.266	-223.77		-0.73	0.000
448.69	14.652	17.873	55.70	0.46	2.411	1.301	-180.30		-0.73	0.000
448.96	14.710	17.512	55.64	0.45	2.462	1.335	-95.75		-0.73	0.000
449.22	14.796	17.091	55.55	0.45	2.523	1.372	-55.03		-0.73	0.000
449.49	14.881	16.635	55.47	0.45	2.586	1.410	14.01		-0.73	0.000
449.76	14.934	16.142	55.42	0.45	2.647	1.427	46.46		-0.73	0.000
450.03	15.016	15.589	55.33	0.45	2.711	1.466	68.64		-0.73	0.000
450.29	15.092	15.024	55.26	0.45	2.749	1.502	85.43		-0.73	0.000
450.56	15.140	14.411	55.21	0.45	2.807	1.540	77.43		-0.73	0.000
450.82	15.210	13.762	55.14	0.45	2.873	1.583	32.45		-0.73	0.000
451.09	15.278	13.077	55.07	0.45	2.940	1.620	1.36		-0.73	0.000
451.36	15.321	12.368	55.03	0.45	2.999	1.660	-68.34		-0.73	0.000
451.63	15.380	11.635	54.97	0.45	3.058	1.681	-91.51		-0.73	0.000
451.90	15.438	10.841	54.91	0.45	3.086	1.721	-113.64		-0.73	0.000
452.17	15.471	10.024	54.88	0.45	3.146	1.760	-111.60		-0.73	0.000
452.44	15.520	9.183	54.83	0.45	3.194	1.797	-101.36		-0.73	0.000
452.72	15.562	8.317	54.79	0.45	3.253	1.833	-100.00		-0.73	0.000
452.99	15.589	7.416	54.76	0.45	3.295	1.869	-126.01		-0.73	0.000
453.26	15.624	6.490	54.73	0.45	3.332	1.902	-147.67		-0.73	0.000
453.53	15.655	5.577	54.70	0.45	3.361	1.931	-170.40		-0.73	0.000
453.81	15.679	4.615	54.67	0.45	3.390	1.955	-177.79		-0.73	0.000
454.08	15.693	3.666	54.66	0.45	3.407	1.966	-146.65		-0.73	0.000
454.35	15.706	2.692	54.64	0.45	3.405	1.984	-122.21		-0.73	0.000
454.62	15.713	1.707	54.64	0.45	3.421	1.996	-101.68		-0.73	0.000
454.89	15.721	0.745	54.63	0.45	3.420	2.006	-112.48		-0.73	0.000
455.16	15.721	-0.228	54.63	0.45	3.414	2.009	-155.28		-0.73	0.000
455.43	15.721	-1.190	54.63	0.45	3.409	2.009	-174.65		-0.73	0.000
455.70	15.721	-2.163	54.63	0.45	3.393	2.006	-180.09		-0.73	0.000
455.97	15.719	-3.113	54.63	0.45	3.391	1.998	-165.67		-0.73	0.000
456.25	15.698	-4.075	54.65	0.45	3.387	1.993	-130.30		-0.73	0.000
456.52	15.675	-5.036	54.67	0.45	3.380	1.991	-121.79		-0.73	0.000
456.80	15.657	-5.986	54.69	0.45	3.375	1.986	-142.19		-0.73	0.000
457.07	15.622	-6.911	54.73	0.45	3.356	1.978	-173.18		-0.73	0.000
457.34	15.587	-7.825	54.76	0.45	3.337	1.967	-235.21		-0.73	0.000
457.62	15.543	-8.714	54.81	0.45	3.306	1.952	-247.10		-0.73	0.000
457.89	15.513	-9.579	54.84	0.45	3.280	1.927	-231.65		-0.73	0.000
458.16	15.463	-10.433	54.89	0.45	3.245	1.901	-207.60		-0.73	0.000
458.44	15.410	-11.238	54.94	0.45	3.197	1.872	-156.12		-0.73	0.000
458.71	15.371	-12.019	54.98	0.45	3.158	1.833	-132.53		-0.73	0.000
458.98	15.308	-12.764	55.04	0.45	3.136	1.790	-91.28		-0.73	0.000
459.26	15.242	-13.486	55.11	0.45	3.128	1.751	-75.45		-0.73	0.000
459.52	15.174	-14.159	55.18	0.45	3.117	1.737	-16.53		-0.73	0.000
459.79	15.124	-14.796	55.23	0.45	3.087	1.717	28.13		-0.73	0.000
460.07	15.049	-15.397	55.30	0.45	3.039	1.695	117.98		-0.73	0.000
460.34	14.970	-15.950	55.38	0.45	2.990	1.661	146.75		-0.73	0.000
460.61	14.919	-16.466	55.43	0.45	2.942	1.618	179.07		-0.73	0.000
460.88	14.834	-16.935	55.52	0.45	2.892	1.577	188.27		-0.73	0.000
461.15	14.748	-17.368	55.60	0.45	2.843	1.538	191.01		-0.73	0.000
461.42	14.690	-17.752	55.66	0.46	2.826	1.505	186.77		-0.73	0.000
461.69	14.599	-18.089	55.75	0.46	2.780	1.491	159.81		-0.73	0.000
461.96	14.508	-18.389	55.84	0.46	2.737	1.460	141.63		-0.73	0.000
462.23	14.447	-18.630	55.90	0.46	2.647	1.434	81.53		-0.73	0.000
462.50	14.352	-18.822	56.00	0.46	2.571	1.404	39.55		-0.73	0.000
462.77	14.257	-18.966	56.09	0.46	2.476	1.363	-29.00		-0.73	0.000
463.04	14.162	-19.063	56.19	0.46	2.398	1.323	-38.57		-0.73	0.000
463.31	14.101	-19.111	56.25	0.46	2.362	1.282	-18.23		-0.73	0.000
463.58	14.003	-19.111	56.35	0.46	2.297	1.247	-7.56		-0.73	0.000
463.84	13.908	-19.050	56.44	0.46	2.241	1.229	1.43		-0.73	0.000
464.11	13.844	-18.954	56.51	0.46	2.200	1.196	-4.30		-0.73	0.000
464.38	13.752	-18.810	56.60	0.46	2.153	1.169	-20.33		-0.73	0.000
464.65	13.657	-18.606	56.69	0.46	2.116	1.141	-35.63		-0.73	0.000
464.92	13.596	-18.365	56.75	0.46	2.085	1.118	-47.88		-0.73	0.000
465.19	13.506	-18.065	56.84	0.46	2.061	1.099	-49.99		-0.73	0.000
465.47	13.415	-17.728	56.94	0.47	2.047	1.080	-58.91		-0.73	0.000
465.74	13.357	-17.344	56.99	0.47	2.018	1.062	-72.19		-0.73	0.000
466.01	13.271	-16.899	57.08	0.47	1.996	1.047	-119.13		-0.73	0.000
466.28	13.188	-16.418	57.16	0.47	1.981	1.040	-140.14		-0.73	0.000
466.56	13.108	-15.901	57.24	0.47	1.960	1.026	-171.28		-0.73	0.000
466.83	13.055	-15.337	57.30	0.47	1.943	1.016	-180.91		-0.73	0.000
467.10	12.980	-14.724	57.37	0.47	1.931	1.007	-198.23		-0.73	0.000
467.37	12.908	-14.087	57.44	0.47	1.915	0.997	-210.87		-0.73	0.000
467.65	12.864	-13.401	57.49	0.47	1.908	0.989	-224.51		-0.73	0.000
467.92	12.797	-12.692	57.55	0.47	1.900	0.982	-218.53		-0.73	0.000
468.19	12.737	-11.935	57.61	0.47	1.892	0.977	-200.84		-0.73	0.000
468.46	12.679	-11.142	57.67	0.47	1.889	0.974	-180.99		-0.73	0.000
468.74	12.642	-10.337	57.71	0.47	1.877	0.972	-121.58		-0.73	0.000
469.01	12.593	-9.495	57.76	0.47	1.872	0.971	-93.28		-0.73	0.000
469.29	12.547	-8.618	57.80	0.47	1.854	0.968	-73.66		-0.73	0.000
469.56	12.521	-7.752	57.83	0.47	1.853	0.966	-91.47		-0.73	0.000
469.83	12.485	-6.827	57.86	0.47	1.847	0.962	-156.24		-0.73	0.000
470.11	12.455	-5.889	57.90	0.47	1.840	0.959	-194.40		-0.73	0.000
470.39	12.429	-4.952	57.92	0.47	1.851	0.957	-258.01		-0.73	0.000
470.66	12.416	-3.990	57.93	0.47	1.845	0.956	-318.51		-0.73	0.000
470.93	12.397	-3.005	57.95	0.47	1.841	0.955	-329.39		-0.73	0.000
471.20	12.387	-2.031	57.96	0.47	1.843	0.954	-345.20		-0.73	0.000
471.47	12.384	-1.046	57.97	0.47	1.839	0.954	-358.93		-0.73	0.000
471.73	12.376	-0.084	57.97	0.47	1.840	0.954	-375.40		-0.73	0.000
471.99	12.376	0.877	57.97	0.47	1.839	0.954	-418.20		-0.73	0.000
472.26	12.376	1.815	57.97	0.47	1.843	0.955	-433.12		-0.73	0.000
472.52	12.376	2.764	57.97	0.47	1.846	0.955	-424.92		-0.73	0.000
472.79	12.397	3.690	57.95	0.47	1.839	0.955	-408.30		-0.73	0.000
473.06	12.410	4.627	57.94	0.47	1.844	0.956	-359.27		-0.73	0.000
473.33	12.438	5.565	57.91	0.47	1.843	0.957	-326.83		-0.73	0.000
473.60	12.469	6.466	57.88	0.47	1.842	0.958	-257.27		-0.73	0.000
473.87	12.491	7.380	57.86	0.47	1.845	0.961	-232.87		-0.73	0.000
474.15	12.532	8.281	57.82	0.47	1.849	0.961	-201.36		-0.73	0.000
474.42	12.575	9.147	57.77	0.47	1.845	0.963	-187.38		-0.73	0.000
474.69	12.607	10.000	57.74	0.47	1.850	0.965	-169.91		-0.73	0.000
474.96	12.660	10.829	57.69	0.47	1.849	0.966	-156.97		-0.73	0.000
475.23	12.714	11.611	57.64	0.47	1.854	0.968	-145.99		-0.73	0.000
475.50	12.775	12.368	57.57	0.47	1.859	0.970	-143.32		-0.73	0.000
475.78	12.816	13.113	57.53	0.47	1.862	0.973	-152.13		-0.73	0.000
476.05	12.884	13.798	57.47	0.47	1.869	0.976	-163.30		-0.73	0.000
476.32	12.956	14.459	57.39	0.47	1.875	0.978	-197.43		-0.73	0.000
476.59	13.006	15.072	57.34	0.47	1.877	0.981	-211.32		-0.73	0.000
476.86	13.080	15.661	57.27	0.47	1.889	0.985	-242.42		-0.73	0.000
477.13	13.161	16.202	57.19	0.47	1.895	0.993	-254.74		-0.73	0.000
477.40	13.216	16.695	57.13	0.47	1.905	0.999	-278.38		-0.73	0.000
477.67	13.301	17.151	57.05	0.47	1.918	1.006	-286.62		-0.73	0.000
477.94	13.387	17.548	56.96	0.47	1.923	1.012	-314.64		-0.73	0.000
478.21	13.446	17.921	56.90	0.47	1.936	1.017	-323.19		-0.73	0.000
478.48	13.535	18.233	56.81	0.46	1.957	1.025	-309.42		-0.73	0.000
478.75	13.626	18.498	56.72	0.46	1.967	1.034	-284.10		-0.73	0.000
479.02	13.721	18.714	56.63	0.46	1.994	1.045	-220.22		-0.73	0.000
479.29	13.784	18.894	56.57	0.46	2.023	1.058	-182.40		-0.73	0.000
479.56	13.879	19.014	56.47	0.46	2.058	1.078	-141.91		-0.73	0.000
479.84	13.975	19.087	56.37	0.46	2.092	1.098	-133.12		-0.73	0.000
480.10	14.038	19.111	56.31	0.46	2.127	1.118	-134.00		-0.73	0.000
480.37	14.134	19.087	56.22	0.46	2.168	1.146	-136.84		-0.73	0.000
480.64	14.228	19.014	56.12	0.46	2.200	1.161	-151.86		-0.73	0.000
480.91	14.293	18.882	56.06	0.46	2.220	1.188	-151.30		-0.73	0.000
481.19	14.384	18.714	55.97	0.46	2.268	1.214	-140.40		-0.73	0.000
481.46	14.478	18.498	55.87	0.46	2.314	1.242	-133.64		-0.73	0.000
481.72	14.539	18.221	55.81	0.46	2.365	1.274	-132.16		-0.73	0.000
482.00	14.629	17.897	55.72	0.46	2.418	1.305	-135.95		-0.73	0.000
482.26	14.719	17.536	55.63	0.45	2.479	1.342	-148.70		-0.73	0.000
482.54	14.806	17.127	55.54	0.45	2.533	1.378	-152.66		-0.73	0.000
482.81	14.861	16.683	55.49	0.45	2.565	1.397	-155.77		-0.73	0.000
483.08	14.943	16.178	55.41	0.45	2.627	1.434	-156.49		-0.73	0.000
483.35	15.022	15.637	55.33	0.45	2.693	1.472	-149.70		-0.73	0.000
483.62	15.074	15.060	55.28	0.45	2.759	1.514	-138.74		-0.73	0.000
483.89	15.147	14.435	55.20	0.45	2.825	1.553	-109.63		-0.73	0.000
484.16	15.219	13.762	55.13	0.45	2.898	1.594	-87.53		-0.73	0.000
484.43	15.262	13.077	55.09	0.45	2.957	1.633	-54.28		-0.73	0.000
484.70	15.325	12.356	55.02	0.45	3.022	1.672	-56.56		-0.73	0.000
484.98	15.387	11.599	54.96	0.45	3.079	1.713	-88.40		-0.73	0.000
485.25	15.442	10.805	54.91	0.45	3.108	1.731	-115.59		-0.73	0.000
485.51	15.478	9.976	54.87	0.45	3.167	1.771	-127.29		-0.73	0.000
485.79	15.524	9.123	54.83	0.45	3.219	1.807	-127.59		-0.73	0.000
486.06	15.569	8.269	54.78	0.45	3.267	1.846	-94.45		-0.73	0.000
486.34	15.593	7.368	54.76	0.45	3.315	1.879	-72.86		-0.73	0.000
486.60	15.629	6.454	54.72	0.45	3.352	1.912	-44.15		-0.73	0.000
486.88	15.656	5.517	54.69	0.45	3.375	1.937	-50.85		-0.73	0.000
487.15	15.672	4.591	54.68	0.45	3.408	1.962	-105.77		-0.73	0.000
487.42	15.689	3.618	54.66	0.45	3.411	1.979	-147.00		-0.73	0.000
487.69	15.707	2.656	54.64	0.45	3.426	1.988	-183.55		-0.73	0.000
487.96	15.715	1.683	54.64	0.45	3.431	2.002	-186.80		-0.73	0.000
488.24	15.722	0.721	54.63	0.45	3.438	2.015	-165.71		-0.73	0.000
488.50	15.722	-0.240	54.63	0.45	3.434	2.020	-159.85		-0.73	0.000
488.77	15.722	-1.238	54.63	0.45	3.425	2.022	-153.86		-0.73	0.000
489.04	15.722	-2.200	54.63	0.45	3.419	2.017	-156.48		-0.73	0.000
489.31	15.715	-3.161	54.64	0.45	3.413	2.010	-171.35		-0.73	0.000
489.59	15.696	-4.111	54.65	0.45	3.408	2.003	-176.23		-0.73	0.000
489.87	15.681	-5.048	54.67	0.45	3.405	1.998	-157.64		-0.73	0.000
490.14	15.653	-6.010	54.70	0.45	3.394	1.994	-129.82		-0.73	0.000
490.42	15.619	-6.947	54.73	0.45	3.375	1.991	-55.22		-0.73	0.000
490.69	15.580	-7.873	54.77	0.45	3.353	1.980	-23.84		-0.73	0.000
490.96	15.555	-8.750	54.80	0.45	3.326	1.963	16.83		-0.73	0.000
491.23	15.507	-9.615	54.84	0.45	3.294	1.936	14.76		-0.73	0.000
491.50	15.457	-10.445	54.89	0.45	3.261	1.910	-14.56		-0.73	0.000
491.77	15.422	-11.250	54.93	0.45	3.214	1.878	-28.59		-0.73	0.000
492.05	15.362	-12.031	54.99	0.45	3.193	1.841	-57.49		-0.73	0.000
492.32	15.299	-12.776	55.05	0.45	3.174	1.804	-68.89		-0.73	0.000
492.60	15.234	-13.486	55.12	0.45	3.155	1.775	-85.22		-0.73	0.000
492.87	15.189	-14.171	55.16	0.45	3.139	1.753	-93.19		-0.73	0.000
493.14	15.116	-14.820	55.23	0.45	3.098	1.744	-129.44		-0.73	0.000
493.42	15.040	-15.421	55.31	0.45	3.043	1.718	-156.76		-0.73	0.000
493.69	14.989	-15.974	55.36	0.45	2.993	1.680	-208.40		-0.73	0.000
493.96	14.908	-16.502	55.44	0.45	2.947	1.633	-216.29		-0.73	0.000
494.24	14.825	-16.971	55.52	0.45	2.905	1.589	-215.15		-0.73	0.000
494.51	14.738	-17.404	55.61	0.45	2.847	1.549	-219.40		-0.73	0.000
494.77	14.680	-17.788	55.67	0.46	2.826	1.518	-267.49		-0.73	0.000
495.05	14.589	-18.125	55.76	0.46	2.776	1.489	-295.00		-0.73	0.000
495.33	14.498	-18.401	55.85	0.46	2.732	1.462	-366.35		-0.73	0.000
495.60	14.437	-18.654	55.91	0.46	2.639	1.433	-389.31		-0.73	0.000
495.87	14.343	-18.846	56.01	0.46	2.563	1.413	-388.17		-0.73	0.000
496.15	14.248	-18.978	56.10	0.46	2.471	1.375	-367.69		-0.73	0.000
496.42	14.153	-19.075	56.20	0.46	2.391	1.335	-326.28		-0.73	0.000
496.69	14.089	-19.111	56.26	0.46	2.326	1.293	-321.87		-0.73	0.000
496.96	13.994	-19.099	56.36	0.46	2.284	1.259	-345.39		-0.73	0.000
497.24	13.898	-19.038	56.45	0.46	2.236	1.225	-363.83		-0.73	0.000
497.51	13.837	-18.930	56.51	0.46	2.187	1.193	-368.91		-0.73	0.000
497.78	13.742	-18.762	56.61	0.46	2.142	1.167	-365.09		-0.73	0.000
498.06	13.647	-18.558	56.70	0.46	2.113	1.142	-341.52		-0.73	0.000
498.33	13.557	-18.293	56.79	0.46	2.071	1.119	-326.11		-0.73	0.000
498.60	13.497	-17.981	56.85	0.46	2.050	1.109	-330.47		-0.73	0.000
498.88	13.406	-17.632	56.94	0.47	2.017	1.091	-387.00		-0.73	0.000
499.15	13.320	-17.224	57.03	0.47	1.998	1.074	-424.55		-0.73	0.000
499.42	13.235	-16.779	57.11	0.47	1.982	1.059	-467.30		-0.73	0.000
499.69	13.179	-16.286	57.17	0.47	1.960	1.049	-476.09		-0.73	0.000
499.96	13.099	-15.745	57.25	0.47	1.943	1.036	-449.42		-0.73	0.000
500.24	13.023	-15.180	57.33	0.47	1.921	1.020	-429.16		-0.73	0.000
500.51	12.973	-14.555	57.38	0.47	1.915	1.010	-367.29		-0.73	0.000
500.78	12.902	-13.894	57.45	0.47	1.895	1.001	-334.55		-0.73	0.000
501.06	12.834	-13.209	57.52	0.47	1.885	0.993	-273.10		-0.73	0.000
501.33	12.769	-12.476	57.58	0.47	1.874	0.989	-254.60		-0.73	0.000
501.60	12.729	-11.719	57.62	0.47	1.863	0.981	-235.05		-0.73	0.000
501.87	12.674	-10.937	57.68	0.47	1.850	0.976	-231.81		-0.73	0.000
502.15	12.621	-10.108	57.73	0.47	1.850	0.971	-222.01		-0.73	0.000
502.43	12.588	-9.267	57.76	0.47	1.845	0.965	-207.08		-0.73	0.000
502.70	12.544	-8.365	57.81	0.47	1.829	0.959	-159.36		-0.73	0.000
502.97	12.506	-7.464	57.84	0.47	1.826	0.951	-139.94		-0.73	0.000
503.25	12.470	-6.538	57.88	0.47	1.826	0.948	-106.90		-0.73	0.000
503.53	12.450	-5.613	57.90	0.47	1.811	0.944	-111.10		-0.73	0.000
503.80	12.426	-4.651	57.92	0.47	1.809	0.941	-121.33		-0.73	0.000
504.07	12.408	-3.666	57.94	0.47	1.805	0.938	-126.81		-0.73	0.000
504.34	12.394	-2.716	57.96	0.47	1.807	0.937	-115.29		-0.73	0.000
504.61	12.385	-1.755	57.96	0.47	1.806	0.936	-96.89		-0.73	0.000
504.89	12.382	-0.781	57.97	0.47	1.809	0.935	-29.11		-0.73	0.000
505.14	12.380	0.180	57.97	0.47	1.811	0.937	4.04		-0.73	0.000
505.41	12.380	1.178	57.97	0.47	1.810	0.939	61.68		-0.73	0.000
505.67	12.380	2.103	57.97	0.47	1.815	0.940	82.65		-0.73	0.000
505.93	12.380	3.053	57.97	0.47	1.811	0.941	95.42		-0.73	0.000
506.20	12.397	3.966	57.95	0.47	1.812	0.941	73.45		-0.73	0.000
506.47	12.421	4.892	57.93	0.47	1.815	0.943	32.03		-0.73	0.000
506.74	12.439	5.829	57.91	0.47	1.816	0.947	12.32		-0.73	0.000
507.00	12.473	6.731	57.88	0.47	1.821	0.950	-0.59		-0.73	0.000
507.26	12.508	7.632	57.84	0.47	1.817	0.952	-16.91		-0.73	0.000
507.53	12.535	8.486	57.81	0.47	1.822	0.954	-36.65		-0.73	0.000
507.80	12.579	9.327	57.77	0.47	1.819	0.957	-101.55		-0.73	0.000
508.07	12.629	10.156	57.72	0.47	1.822	0.959	-142.35		-0.73	0.000
508.34	12.662	10.974	57.69	0.47	1.827	0.961	-226.87		-0.73	0.000
508.61	12.720	11.755	57.63	0.47	1.831	0.962	-263.08		-0.73	0.000
508.89	12.782	12.512	57.57	0.47	1.838	0.963	-326.99		-0.73	0.000
509.15	12.825	13.221	57.52	0.47	1.837	0.966	-331.93		-0.73	0.000
509.42	12.892	13.918	57.46	0.47	1.847	0.971	-333.13		-0.73	0.000
509.70	12.964	14.567	57.39	0.47	1.849	0.976	-335.27		-0.73	0.000
509.97	13.014	15.168	57.34	0.47	1.861	0.980	-331.83		-0.73	0.000
510.23	13.089	15.757	57.26	0.47	1.868	0.983	-330.39		-0.73	0.000
510.51	13.169	16.274	57.18	0.47	1.877	0.990	-299.07		-0.73	0.000
510.78	13.252	16.767	57.10	0.47	1.893	0.995	-274.54		-0.73	0.000
511.04	13.308	17.224	57.04	0.47	1.905	1.003	-232.54		-0.73	0.000
511.32	13.394	17.620	56.96	0.47	1.917	1.011	-232.24		-0.73	0.000
511.59	13.484	17.969	56.87	0.46	1.930	1.020	-246.68		-0.73	0.000
511.86	13.546	18.281	56.80	0.46	1.950	1.030	-254.16		-0.73	0.000
512.12	13.637	18.534	56.71	0.46	1.963	1.041	-271.85		-0.73	0.000
512.40	13.730	18.750	56.62	0.46	1.991	1.048	-274.83		-0.73	0.000
512.67	13.793	18.918	56.56	0.46	2.025	1.061	-296.13		-0.73	0.000
512.94	13.888	19.026	56.46	0.46	2.055	1.080	-315.98		-0.73	0.000
513.22	13.983	19.099	56.37	0.46	2.091	1.102	-364.23		-0.73	0.000
513.48	14.048	19.111	56.30	0.46	2.129	1.128	-382.99		-0.73	0.000
513.76	14.143	19.075	56.21	0.46	2.169	1.156	-403.34		-0.73	0.000
514.02	14.239	18.990	56.11	0.46	2.208	1.184	-392.43		-0.73	0.000
