Name           :	1mgmlAuDDT_O13	
User           :	Isaac	
Date           :	8/6/2014	

Probe1         :	Wilhelmy	
Perimeter      : 	39.240	

Probe2         :	Wilhelmy	
Perimeter      : 	39.240	

Trough         :	Extra Small	
Width          :	50.0	
Area           :	7035.0	
Symmetric comp :	True	

Subphase       :	Water	
Surface tension:	72.80	
pH             :	7.00	
Temperature    :	19.5	

Addition       :		
Concentration  :		
Unit           :	Unknown         	

Substance1     :	Au NP	
MW             :	197.0	
Concentration  :	1.000	
Unit           :	mg/ml           	
Volume         :	400.00	

Substance2     :		
MW             : 		
Concentration  : 		
Unit           :	Unknown         	
Volume         : 		

Substrate      :		
Height         : 		
Shape          : 	Rectangle       	
Width          :		
Thickness      :		


t[s]	Bpos	Bspd	A[cm²]	Mma[Å²]	P1[mN/m]	P2[mN/m]	T[°C]	SP[V]	pH	AD[V]
18.88	20.395	16.971	49.95	0.41	9.077	6.044	116.79		-0.78	0.000
19.15	20.480	16.947	49.87	0.41	9.248	6.095	188.43		-0.78	0.000
19.42	20.538	16.887	49.81	0.41	9.395	6.196	198.62		-0.78	0.000
19.70	20.621	16.779	49.73	0.41	9.536	6.309	177.45		-0.78	0.000
19.97	20.704	16.623	49.65	0.41	9.705	6.441	162.55		-0.78	0.000
20.25	20.786	16.430	49.56	0.41	9.797	6.508	131.99		-0.78	0.000
20.51	20.841	16.190	49.51	0.40	9.928	6.623	108.36		-0.78	0.000
20.78	20.921	15.901	49.43	0.40	9.992	6.740	50.91		-0.78	0.000
21.05	21.000	15.589	49.35	0.40	10.068	6.846	20.17		-0.78	0.000
21.32	21.053	15.228	49.30	0.40	10.190	6.949	-8.80		-0.78	0.000
21.59	21.126	14.832	49.22	0.40	10.269	7.043	-30.56		-0.78	0.000
21.86	21.199	14.387	49.15	0.40	10.361	7.136	-102.08		-0.78	0.000
22.14	21.270	13.918	49.08	0.40	10.446	7.221	-142.14		-0.78	0.000
22.42	21.317	13.389	49.03	0.40	10.519	7.301	-181.00		-0.78	0.000
22.69	21.380	12.825	48.97	0.40	10.593	7.344	-188.22		-0.78	0.000
22.96	21.444	12.236	48.91	0.40	10.655	7.418	-199.91		-0.78	0.000
23.24	21.482	11.611	48.87	0.40	10.686	7.488	-200.09		-0.78	0.000
23.51	21.540	10.950	48.81	0.40	10.736	7.553	-168.57		-0.78	0.000
23.79	21.593	10.264	48.76	0.40	10.782	7.607	-146.45		-0.78	0.000
24.06	21.643	9.567	48.71	0.40	10.815	7.662	-109.44		-0.78	0.000
24.34	21.675	8.822	48.68	0.40	10.844	7.699	-100.51		-0.78	0.000
24.61	21.715	8.053	48.64	0.40	10.878	7.743	-65.16		-0.78	0.000
24.89	21.754	7.272	48.60	0.40	10.887	7.768	-49.39		-0.78	0.000
25.17	21.786	6.478	48.56	0.40	10.912	7.800	-31.27		-0.78	0.000
25.43	21.807	5.637	48.54	0.40	10.919	7.822	-34.41		-0.78	0.000
25.71	21.834	4.796	48.52	0.40	10.929	7.831	-49.67		-0.78	0.000
25.98	21.849	3.966	48.50	0.40	10.935	7.848	-63.11		-0.78	0.000
26.26	21.870	3.101	48.48	0.40	10.905	7.857	-95.30		-0.78	0.000
26.53	21.879	2.236	48.47	0.40	10.915	7.860	-108.36		-0.78	0.000
26.80	21.882	1.370	48.47	0.40	10.884	7.858	-125.87		-0.78	0.000
27.07	21.890	0.505	48.46	0.40	10.879	7.852	-129.51		-0.78	0.000
27.35	21.890	-0.361	48.46	0.40	10.831	7.840	-141.85		-0.78	0.000
27.62	21.890	-1.226	48.46	0.40	10.806	7.818	-149.27		-0.78	0.000
27.89	21.890	-2.115	48.46	0.40	10.787	7.798	-156.19		-0.78	0.000
28.16	21.884	-2.969	48.47	0.40	10.741	7.770	-158.95		-0.78	0.000
28.44	21.873	-3.822	48.48	0.40	10.749	7.757	-135.91		-0.78	0.000
28.72	21.849	-4.663	48.50	0.40	10.710	7.733	-110.62		-0.78	0.000
29.00	21.823	-5.505	48.53	0.40	10.670	7.708	-62.99		-0.78	0.000
29.27	21.803	-6.334	48.55	0.40	10.630	7.687	-18.51		-0.78	0.000
29.54	21.768	-7.151	48.58	0.40	10.574	7.652	-2.44		-0.78	0.000
29.82	21.732	-7.921	48.62	0.40	10.539	7.607	1.84		-0.78	0.000
30.08	21.690	-8.690	48.66	0.40	10.503	7.551	2.53		-0.78	0.000
30.35	21.658	-9.435	48.69	0.40	10.498	7.516	2.33		-0.78	0.000
30.62	21.608	-10.132	48.74	0.40	10.453	7.487	-5.05		-0.78	0.000
30.90	21.557	-10.805	48.79	0.40	10.432	7.456	-35.18		-0.78	0.000
31.17	21.521	-11.466	48.83	0.40	10.360	7.420	-51.39		-0.78	0.000
31.45	21.462	-12.091	48.89	0.40	10.277	7.386	-83.63		-0.78	0.000
31.72	21.399	-12.692	48.95	0.40	10.188	7.311	-97.68		-0.78	0.000
32.00	21.334	-13.257	49.02	0.40	10.064	7.216	-120.28		-0.78	0.000
32.28	21.290	-13.786	49.06	0.40	9.973	7.110	-128.13		-0.78	0.000
32.55	21.220	-14.291	49.13	0.40	9.846	6.999	-125.71		-0.78	0.000
32.82	21.147	-14.748	49.20	0.40	9.726	6.879	-110.35		-0.78	0.000
33.10	21.072	-15.156	49.28	0.40	9.600	6.756	-82.49		-0.78	0.000
33.37	21.022	-15.529	49.33	0.40	9.478	6.624	-69.27		-0.78	0.000
33.64	20.941	-15.865	49.41	0.40	9.417	6.499	-15.11		-0.78	0.000
33.91	20.863	-16.154	49.49	0.40	9.282	6.368	24.24		-0.78	0.000
34.19	20.807	-16.394	49.54	0.41	9.155	6.306	90.16		-0.78	0.000
34.46	20.726	-16.599	49.62	0.41	9.016	6.183	117.09		-0.78	0.000
34.74	20.641	-16.755	49.71	0.41	8.883	6.053	157.49		-0.78	0.000
35.01	20.557	-16.875	49.79	0.41	8.701	5.937	172.17		-0.78	0.000
35.28	20.502	-16.947	49.85	0.41	8.500	5.806	189.38		-0.78	0.000
35.55	20.417	-16.971	49.93	0.41	8.332	5.668	194.30		-0.78	0.000
35.83	20.333	-16.947	50.02	0.41	8.140	5.526	200.18		-0.78	0.000
36.09	20.276	-16.887	50.07	0.41	8.068	5.393	201.14		-0.78	0.000
36.37	20.192	-16.767	50.16	0.41	7.917	5.267	209.44		-0.78	0.000
36.64	20.108	-16.623	50.24	0.41	7.750	5.149	207.79		-0.78	0.000
36.92	20.026	-16.418	50.32	0.41	7.616	5.093	178.98		-0.78	0.000
37.19	19.970	-16.178	50.38	0.41	7.463	4.983	150.10		-0.78	0.000
37.46	19.892	-15.889	50.46	0.41	7.347	4.885	75.33		-0.78	0.000
37.73	19.812	-15.577	50.54	0.41	7.212	4.794	31.47		-0.78	0.000
38.01	19.761	-15.204	50.59	0.41	7.109	4.712	-49.83		-0.78	0.000
38.28	19.685	-14.796	50.66	0.41	6.999	4.642	-98.75		-0.78	0.000
38.56	19.613	-14.351	50.74	0.41	6.957	4.574	-207.58		-0.78	0.000
38.83	19.542	-13.870	50.81	0.42	6.872	4.520	-255.31		-0.78	0.000
39.10	19.498	-13.341	50.85	0.42	6.778	4.465	-342.72		-0.78	0.000
39.37	19.431	-12.788	50.92	0.42	6.719	4.421	-384.90		-0.78	0.000
39.65	19.370	-12.200	50.98	0.42	6.647	4.400	-448.22		-0.78	0.000
39.92	19.330	-11.575	51.02	0.42	6.600	4.361	-460.65		-0.78	0.000
40.19	19.275	-10.913	51.08	0.42	6.557	4.331	-448.16		-0.78	0.000
40.47	19.221	-10.240	51.13	0.42	6.503	4.301	-440.19		-0.78	0.000
40.75	19.174	-9.519	51.18	0.42	6.479	4.280	-408.54		-0.78	0.000
41.02	19.142	-8.774	51.21	0.42	6.439	4.260	-389.03		-0.78	0.000
41.29	19.101	-8.005	51.25	0.42	6.424	4.248	-341.63		-0.78	0.000
41.57	19.062	-7.224	51.29	0.42	6.408	4.232	-291.45		-0.78	0.000
41.84	19.030	-6.430	51.32	0.42	6.385	4.221	-256.89		-0.78	0.000
42.13	19.007	-5.589	51.34	0.42	6.375	4.217	-181.09		-0.78	0.000
42.40	18.985	-4.760	51.36	0.42	6.355	4.206	-144.18		-0.78	0.000
42.67	18.962	-3.882	51.39	0.42	6.353	4.202	-86.21		-0.78	0.000
42.95	18.945	-3.029	51.40	0.42	6.338	4.200	-71.86		-0.78	0.000
43.22	18.942	-2.163	51.41	0.42	6.342	4.197	-49.43		-0.78	0.000
43.49	18.933	-1.298	51.42	0.42	6.324	4.195	-38.54		-0.78	0.000
43.76	18.929	-0.445	51.42	0.42	6.335	4.194	-26.02		-0.78	0.000
44.02	18.929	0.433	51.42	0.42	6.336	4.193	-32.74		-0.78	0.000
44.29	18.929	1.286	51.42	0.42	6.333	4.196	-41.77		-0.78	0.000
44.55	18.929	2.115	51.42	0.42	6.345	4.200	-38.77		-0.78	0.000
44.81	18.929	2.957	51.42	0.42	6.337	4.201	-28.50		-0.78	0.000
45.08	18.949	3.774	51.40	0.42	6.338	4.203	1.52		-0.78	0.000
45.35	18.971	4.579	51.38	0.42	6.345	4.205	10.11		-0.78	0.000
45.61	18.988	5.409	51.36	0.42	6.337	4.208	14.22		-0.78	0.000
45.88	19.018	6.226	51.33	0.42	6.353	4.209	15.09		-0.78	0.000
46.15	19.052	7.007	51.30	0.42	6.355	4.212	-11.50		-0.78	0.000
46.42	19.075	7.764	51.28	0.42	6.351	4.214	-28.56		-0.78	0.000
46.69	19.117	8.534	51.23	0.42	6.357	4.216	-56.01		-0.78	0.000
46.96	19.162	9.267	51.19	0.42	6.357	4.217	-51.11		-0.78	0.000
47.24	19.193	9.976	51.16	0.42	6.369	4.219	-24.32		-0.78	0.000
47.50	19.244	10.673	51.11	0.42	6.368	4.221	-26.46		-0.78	0.000
47.78	19.301	11.334	51.05	0.42	6.380	4.224	-66.57		-0.78	0.000
48.05	19.339	11.947	51.01	0.42	6.391	4.229	-93.87		-0.78	0.000
48.33	19.401	12.560	50.95	0.42	6.403	4.236	-139.51		-0.78	0.000
48.60	19.466	13.125	50.88	0.42	6.425	4.247	-153.91		-0.78	0.000
48.87	19.531	13.666	50.82	0.42	6.438	4.256	-182.51		-0.78	0.000
49.14	19.577	14.171	50.77	0.42	6.461	4.268	-188.39		-0.78	0.000
49.42	19.650	14.627	50.70	0.41	6.475	4.279	-194.61		-0.78	0.000
49.68	19.725	15.060	50.63	0.41	6.494	4.284	-191.28		-0.78	0.000
49.97	19.776	15.433	50.57	0.41	6.509	4.299	-182.16		-0.78	0.000
50.23	19.854	15.769	50.50	0.41	6.533	4.310	-174.16		-0.78	0.000
50.51	19.931	16.082	50.42	0.41	6.557	4.328	-117.52		-0.78	0.000
50.78	20.013	16.334	50.34	0.41	6.585	4.343	-78.69		-0.78	0.000
51.05	20.068	16.550	50.28	0.41	6.624	4.362	8.53		-0.78	0.000
51.32	20.152	16.719	50.20	0.41	6.682	4.381	49.25		-0.78	0.000
51.59	20.236	16.851	50.11	0.41	6.753	4.412	79.15		-0.78	0.000
51.85	20.293	16.923	50.06	0.41	6.832	4.433	81.31		-0.78	0.000
52.13	20.377	16.959	49.97	0.41	6.866	4.473	65.17		-0.78	0.000
52.39	20.462	16.959	49.89	0.41	6.961	4.522	61.18		-0.78	0.000
52.66	20.518	16.911	49.83	0.41	7.064	4.581	49.69		-0.78	0.000
52.93	20.603	16.815	49.75	0.41	7.179	4.647	40.17		-0.78	0.000
53.20	20.686	16.683	49.66	0.41	7.317	4.728	-6.23		-0.78	0.000
53.47	20.741	16.502	49.61	0.41	7.454	4.819	-33.24		-0.78	0.000
53.74	20.824	16.286	49.53	0.40	7.611	4.922	-85.27		-0.78	0.000
54.01	20.903	16.022	49.45	0.40	7.762	5.038	-104.91		-0.78	0.000
54.29	20.957	15.709	49.39	0.40	7.845	5.099	-126.48		-0.78	0.000
54.56	21.034	15.361	49.32	0.40	8.018	5.226	-129.10		-0.78	0.000
54.84	21.111	14.964	49.24	0.40	8.187	5.361	-118.59		-0.78	0.000
55.11	21.184	14.543	49.17	0.40	8.361	5.497	-114.14		-0.78	0.000
55.39	21.232	14.063	49.12	0.40	8.533	5.638	-104.54		-0.78	0.000
55.66	21.300	13.546	49.05	0.40	8.706	5.785	-97.53		-0.78	0.000
55.94	21.367	13.005	48.98	0.40	8.884	5.930	-59.66		-0.78	0.000
56.20	21.431	12.440	48.92	0.40	9.039	6.077	-34.12		-0.78	0.000
56.47	21.470	11.815	48.88	0.40	9.186	6.222	-27.11		-0.78	0.000
56.74	21.527	11.190	48.82	0.40	9.265	6.358	-47.41		-0.78	0.000
57.02	21.584	10.517	48.77	0.40	9.402	6.423	-114.14		-0.78	0.000
57.29	21.617	9.832	48.73	0.40	9.539	6.545	-134.18		-0.78	0.000
57.56	21.663	9.099	48.69	0.40	9.656	6.659	-149.97		-0.78	0.000
57.83	21.707	8.365	48.64	0.40	9.761	6.764	-137.63		-0.78	0.000
58.11	21.735	7.584	48.61	0.40	9.861	6.858	-132.50		-0.78	0.000
58.38	21.770	6.791	48.58	0.40	9.947	6.945	-136.82		-0.78	0.000
58.65	21.800	5.986	48.55	0.40	10.013	7.021	-166.04		-0.78	0.000
58.92	21.827	5.168	48.52	0.40	10.074	7.085	-180.03		-0.78	0.000
59.20	21.839	4.327	48.51	0.40	10.111	7.139	-172.55		-0.78	0.000
59.47	21.859	3.474	48.49	0.40	10.145	7.163	-145.07		-0.78	0.000
59.74	21.875	2.620	48.48	0.40	10.187	7.202	-54.57		-0.78	0.000
60.02	21.882	1.755	48.47	0.40	10.222	7.232	-19.08		-0.78	0.000
60.29	21.885	0.877	48.46	0.40	10.210	7.253	-22.34		-0.78	0.000
60.54	21.893	0.012	48.46	0.40	10.244	7.263	-35.60		-0.78	0.000
60.82	21.893	-0.841	48.46	0.40	10.224	7.267	-96.69		-0.78	0.000
61.09	21.893	-1.671	48.46	0.40	10.219	7.266	-119.20		-0.78	0.000
61.36	21.893	-2.536	48.46	0.40	10.224	7.258	-163.06		-0.78	0.000
61.64	21.875	-3.389	48.48	0.40	10.209	7.248	-201.26		-0.78	0.000
61.92	21.862	-4.243	48.49	0.40	10.194	7.235	-223.54		-0.78	0.000
62.20	21.839	-5.096	48.51	0.40	10.172	7.229	-269.90		-0.78	0.000
62.47	21.811	-5.925	48.54	0.40	10.141	7.213	-287.94		-0.78	0.000
62.75	21.776	-6.755	48.57	0.40	10.089	7.193	-297.37		-0.78	0.000
63.03	21.753	-7.560	48.60	0.40	10.049	7.155	-269.33		-0.78	0.000
63.30	21.712	-8.353	48.64	0.40	10.029	7.105	-188.79		-0.78	0.000
63.58	21.668	-9.111	48.68	0.40	10.018	7.063	-139.74		-0.78	0.000
63.86	21.621	-9.832	48.73	0.40	9.991	7.033	-69.38		-0.78	0.000
64.13	21.589	-10.529	48.76	0.40	9.961	7.013	-47.35		-0.78	0.000
64.40	21.534	-11.226	48.82	0.40	9.920	6.987	-25.17		-0.78	0.000
64.67	21.476	-11.863	48.87	0.40	9.845	6.933	-13.80		-0.78	0.000
64.95	21.415	-12.476	48.94	0.40	9.756	6.859	0.94		-0.78	0.000
65.21	21.371	-13.041	48.98	0.40	9.644	6.813	0.81		-0.78	0.000
65.48	21.304	-13.582	49.05	0.40	9.552	6.713	5.12		-0.78	0.000
65.75	21.238	-14.075	49.11	0.40	9.436	6.604	9.11		-0.78	0.000
66.02	21.189	-14.543	49.16	0.40	9.319	6.490	23.22		-0.78	0.000
66.29	21.115	-14.964	49.24	0.40	9.200	6.372	32.18		-0.78	0.000
66.56	21.039	-15.349	49.31	0.40	9.133	6.251	56.86		-0.78	0.000
66.83	20.988	-15.697	49.36	0.40	9.023	6.129	74.88		-0.78	0.000
67.11	20.907	-16.010	49.44	0.40	8.889	6.005	99.16		-0.78	0.000
67.38	20.826	-16.274	49.52	0.40	8.770	5.886	106.37		-0.78	0.000
67.65	20.772	-16.502	49.58	0.41	8.640	5.829	107.39		-0.78	0.000
67.93	20.690	-16.683	49.66	0.41	8.517	5.710	104.85		-0.78	0.000
68.20	20.606	-16.815	49.74	0.41	8.364	5.603	88.59		-0.78	0.000
68.47	20.521	-16.911	49.83	0.41	8.171	5.494	73.23		-0.78	0.000
68.74	20.465	-16.959	49.89	0.41	8.080	5.368	47.10		-0.78	0.000
69.01	20.380	-16.959	49.97	0.41	7.909	5.235	32.90		-0.78	0.000
69.28	20.295	-16.923	50.05	0.41	7.748	5.108	-29.68		-0.78	0.000
69.56	20.238	-16.839	50.11	0.41	7.594	4.988	-62.78		-0.78	0.000
69.83	20.154	-16.707	50.20	0.41	7.443	4.879	-95.85		-0.78	0.000
70.10	20.072	-16.538	50.28	0.41	7.305	4.776	-96.07		-0.78	0.000
70.38	19.989	-16.322	50.36	0.41	7.172	4.724	-95.94		-0.78	0.000
70.66	19.935	-16.058	50.41	0.41	7.055	4.633	-104.26		-0.78	0.000
70.93	19.857	-15.745	50.49	0.41	6.939	4.552	-136.12		-0.78	0.000
71.20	19.780	-15.397	50.57	0.41	6.845	4.477	-157.03		-0.78	0.000
71.48	19.703	-15.012	50.65	0.41	6.795	4.412	-191.05		-0.78	0.000
71.76	19.653	-14.579	50.70	0.41	6.708	4.352	-211.30		-0.78	0.000
72.03	19.581	-14.111	50.77	0.42	6.635	4.300	-221.04		-0.78	0.000
72.31	19.513	-13.594	50.84	0.42	6.560	4.253	-210.00		-0.78	0.000
72.58	19.467	-13.041	50.88	0.42	6.499	4.216	-175.38		-0.78	0.000
72.85	19.404	-12.476	50.95	0.42	6.438	4.180	-159.06		-0.78	0.000
73.13	19.343	-11.863	51.01	0.42	6.396	4.150	-146.66		-0.78	0.000
73.41	19.285	-11.226	51.06	0.42	6.357	4.127	-102.50		-0.78	0.000
73.69	19.248	-10.529	51.10	0.42	6.343	4.116	-67.33		-0.78	0.000
73.96	19.195	-9.832	51.15	0.42	6.291	4.102	20.87		-0.78	0.000
74.22	19.151	-9.099	51.20	0.42	6.289	4.083	56.05		-0.78	0.000
74.50	19.106	-8.341	51.24	0.42	6.271	4.072	122.74		-0.78	0.000
74.77	19.080	-7.596	51.27	0.42	6.239	4.061	148.07		-0.78	0.000
75.04	19.045	-6.803	51.30	0.42	6.246	4.057	191.10		-0.78	0.000
75.31	19.015	-6.010	51.34	0.42	6.209	4.051	213.48		-0.78	0.000
75.59	18.994	-5.180	51.36	0.42	6.221	4.046	251.44		-0.78	0.000
75.86	18.971	-4.339	51.38	0.42	6.197	4.040	273.48		-0.78	0.000
76.13	18.954	-3.486	51.40	0.42	6.201	4.039	273.25		-0.78	0.000
76.40	18.943	-2.620	51.41	0.42	6.182	4.038	260.53		-0.78	0.000
76.67	18.933	-1.767	51.42	0.42	6.188	4.039	242.34		-0.78	0.000
76.94	18.929	-0.901	51.42	0.42	6.201	4.038	237.91		-0.78	0.000
77.21	18.926	-0.048	51.42	0.42	6.182	4.041	231.30		-0.78	0.000
77.48	18.926	0.805	51.42	0.42	6.198	4.042	220.61		-0.78	0.000
77.74	18.926	1.671	51.42	0.42	6.186	4.045	187.35		-0.78	0.000
78.01	18.926	2.512	51.42	0.42	6.197	4.047	166.03		-0.78	0.000
78.28	18.934	3.353	51.42	0.42	6.197	4.048	126.51		-0.78	0.000
78.55	18.954	4.183	51.40	0.42	6.197	4.051	111.88		-0.78	0.000
78.83	18.980	5.024	51.37	0.42	6.208	4.053	102.63		-0.78	0.000
79.10	18.997	5.841	51.35	0.42	6.196	4.055	114.46		-0.78	0.000
79.36	19.030	6.647	51.32	0.42	6.233	4.057	130.43		-0.78	0.000
79.64	19.066	7.440	51.28	0.42	6.201	4.062	130.26		-0.78	0.000
79.92	19.090	8.197	51.26	0.42	6.186	4.064	113.91		-0.78	0.000
80.19	19.133	8.966	51.22	0.42	6.241	4.065	109.47		-0.78	0.000
80.47	19.181	9.700	51.17	0.42	6.208	4.071	105.35		-0.78	0.000
80.74	19.233	10.409	51.12	0.42	6.252	4.075	98.65		-0.78	0.000
81.01	19.266	11.082	51.08	0.42	6.245	4.076	76.24		-0.78	0.000
81.28	19.324	11.731	51.03	0.42	6.233	4.078	61.88		-0.78	0.000
81.55	19.386	12.344	50.96	0.42	6.276	4.089	31.62		-0.78	0.000
81.81	19.426	12.909	50.92	0.42	6.268	4.096	17.23		-0.78	0.000
82.08	19.492	13.450	50.86	0.42	6.317	4.108	6.51		-0.78	0.000
82.35	19.562	13.954	50.79	0.42	6.292	4.115	12.88		-0.78	0.000
82.62	19.608	14.423	50.74	0.41	6.347	4.128	24.53		-0.78	0.000
82.89	19.680	14.868	50.67	0.41	6.349	4.138	36.67		-0.78	0.000
83.15	19.757	15.252	50.59	0.41	6.342	4.140	37.12		-0.78	0.000
83.41	19.808	15.613	50.54	0.41	6.392	4.153	48.98		-0.78	0.000
83.68	19.888	15.913	50.46	0.41	6.394	4.165	58.25		-0.78	0.000
83.95	19.967	16.190	50.38	0.41	6.435	4.181	74.02		-0.78	0.000
84.22	20.021	16.430	50.33	0.41	6.436	4.193	68.88		-0.78	0.000
84.49	20.104	16.623	50.25	0.41	6.498	4.207	48.40		-0.78	0.000
84.76	20.188	16.779	50.16	0.41	6.505	4.228	37.87		-0.78	0.000
85.03	20.245	16.887	50.10	0.41	6.573	4.232	14.64		-0.78	0.000
85.30	20.329	16.947	50.02	0.41	6.630	4.269	-10.99		-0.78	0.000
85.57	20.415	16.971	49.94	0.41	6.687	4.305	-89.65		-0.78	0.000
85.84	20.470	16.947	49.88	0.41	6.786	4.344	-132.38		-0.78	0.000
86.12	20.554	16.875	49.80	0.41	6.872	4.392	-202.99		-0.78	0.000
86.39	20.639	16.767	49.71	0.41	6.987	4.445	-222.28		-0.78	0.000
86.66	20.721	16.611	49.63	0.41	7.095	4.517	-232.55		-0.78	0.000
86.93	20.777	16.406	49.57	0.41	7.157	4.594	-217.59		-0.78	0.000
87.21	20.858	16.166	49.49	0.40	7.308	4.689	-190.72		-0.78	0.000
87.47	20.938	15.877	49.41	0.40	7.450	4.737	-184.34		-0.78	0.000
87.75	20.990	15.553	49.36	0.40	7.612	4.844	-187.69		-0.78	0.000
88.02	21.067	15.180	49.28	0.40	7.764	4.963	-196.41		-0.78	0.000
88.30	21.141	14.772	49.21	0.40	7.924	5.084	-181.59		-0.78	0.000
88.57	21.215	14.327	49.14	0.40	8.091	5.219	-156.90		-0.78	0.000
88.84	21.261	13.834	49.09	0.40	8.258	5.351	-91.61		-0.78	0.000
89.11	21.330	13.317	49.02	0.40	8.438	5.493	-66.39		-0.78	0.000
89.38	21.394	12.752	48.96	0.40	8.531	5.636	-43.23		-0.78	0.000
89.65	21.436	12.163	48.91	0.40	8.690	5.779	-41.54		-0.78	0.000
89.93	21.494	11.550	48.86	0.40	8.843	5.918	-61.43		-0.78	0.000
90.20	21.552	10.901	48.80	0.40	8.996	5.985	-69.87		-0.78	0.000
90.47	21.604	10.216	48.75	0.40	9.146	6.117	-85.26		-0.78	0.000
90.74	21.638	9.507	48.71	0.40	9.259	6.244	-84.59		-0.78	0.000
91.02	21.682	8.774	48.67	0.40	9.387	6.358	-93.11		-0.78	0.000
91.29	21.723	8.017	48.63	0.40	9.480	6.465	-109.42		-0.78	0.000
91.57	21.749	7.236	48.60	0.40	9.581	6.560	-153.20		-0.78	0.000
91.84	21.784	6.418	48.57	0.40	9.621	6.649	-170.09		-0.78	0.000
92.11	21.812	5.589	48.54	0.40	9.690	6.723	-198.57		-0.78	0.000
92.39	21.839	4.772	48.51	0.40	9.763	6.792	-205.31		-0.78	0.000
92.66	21.853	3.930	48.50	0.40	9.805	6.842	-239.86		-0.78	0.000
92.93	21.866	3.077	48.48	0.40	9.845	6.870	-258.90		-0.78	0.000
93.20	21.880	2.212	48.47	0.40	9.877	6.912	-308.83		-0.78	0.000
93.47	21.884	1.358	48.47	0.40	9.896	6.938	-333.61		-0.78	0.000
93.74	21.888	0.481	48.46	0.40	9.909	6.960	-372.04		-0.78	0.000
94.01	21.890	-0.361	48.46	0.40	9.903	6.969	-376.92		-0.78	0.000
94.28	21.890	-1.226	48.46	0.40	9.911	6.971	-365.33		-0.78	0.000
94.54	21.890	-2.079	48.46	0.40	9.900	6.968	-353.82		-0.78	0.000
94.81	21.882	-2.933	48.47	0.40	9.898	6.958	-347.58		-0.78	0.000
95.08	21.871	-3.762	48.48	0.40	9.893	6.956	-360.48		-0.78	0.000
95.36	21.852	-4.603	48.50	0.40	9.866	6.945	-379.66		-0.78	0.000
95.63	21.826	-5.421	48.52	0.40	9.853	6.934	-374.94		-0.78	0.000
95.91	21.794	-6.262	48.56	0.40	9.804	6.919	-338.51		-0.78	0.000
96.18	21.775	-7.055	48.58	0.40	9.777	6.895	-318.31		-0.78	0.000
96.46	21.735	-7.861	48.61	0.40	9.742	6.856	-268.85		-0.78	0.000
96.72	21.694	-8.618	48.66	0.40	9.729	6.805	-242.15		-0.78	0.000
97.00	21.649	-9.363	48.70	0.40	9.714	6.772	-197.35		-0.78	0.000
97.28	21.616	-10.060	48.73	0.40	9.687	6.743	-148.89		-0.78	0.000
97.55	21.565	-10.757	48.79	0.40	9.667	6.725	-134.09		-0.78	0.000
97.83	21.509	-11.430	48.84	0.40	9.584	6.693	-85.56		-0.78	0.000
98.10	21.470	-12.055	48.88	0.40	9.502	6.668	-66.35		-0.78	0.000
98.38	21.408	-12.668	48.94	0.40	9.416	6.598	-32.52		-0.78	0.000
98.65	21.343	-13.233	49.01	0.40	9.310	6.508	-25.40		-0.78	0.000
98.92	21.276	-13.762	49.07	0.40	9.260	6.405	8.14		-0.78	0.000
99.19	21.230	-14.255	49.12	0.40	9.149	6.293	31.84		-0.78	0.000
99.46	21.157	-14.700	49.19	0.40	9.019	6.176	73.84		-0.78	0.000
99.73	21.082	-15.120	49.27	0.40	8.905	6.057	80.41		-0.78	0.000
100.01	21.032	-15.493	49.32	0.40	8.781	5.939	63.39		-0.78	0.000
100.28	20.952	-15.829	49.40	0.40	8.650	5.820	41.41		-0.78	0.000
100.55	20.874	-16.130	49.48	0.40	8.539	5.760	-0.77		-0.78	0.000
100.82	20.790	-16.370	49.56	0.41	8.409	5.642	-27.85		-0.78	0.000
101.10	20.736	-16.575	49.61	0.41	8.290	5.530	-56.80		-0.78	0.000
101.37	20.652	-16.743	49.70	0.41	8.237	5.420	-54.90		-0.78	0.000
101.64	20.570	-16.863	49.78	0.41	8.076	5.316	-30.02		-0.78	0.000
101.91	20.513	-16.935	49.84	0.41	7.891	5.211	-20.89		-0.78	0.000
102.19	20.429	-16.971	49.92	0.41	7.716	5.084	-33.26		-0.78	0.000
102.46	20.344	-16.947	50.01	0.41	7.556	4.960	-55.48		-0.78	0.000
102.73	20.259	-16.887	50.09	0.41	7.402	4.841	-105.48		-0.78	0.000
103.01	20.203	-16.791	50.15	0.41	7.268	4.733	-113.92		-0.78	0.000
103.28	20.118	-16.647	50.23	0.41	7.114	4.682	-110.82		-0.78	0.000
103.55	20.035	-16.442	50.31	0.41	6.997	4.584	-107.62		-0.78	0.000
103.82	19.981	-16.214	50.37	0.41	6.943	4.494	-96.62		-0.78	0.000
104.10	19.900	-15.925	50.45	0.41	6.828	4.415	-110.25		-0.78	0.000
104.38	19.821	-15.613	50.53	0.41	6.732	4.347	-156.48		-0.78	0.000
104.64	19.745	-15.240	50.60	0.41	6.629	4.283	-178.42		-0.78	0.000
104.92	19.695	-14.832	50.65	0.41	6.549	4.228	-217.02		-0.78	0.000
105.19	19.622	-14.411	50.73	0.41	6.486	4.180	-228.33		-0.78	0.000
105.46	19.552	-13.918	50.80	0.42	6.408	4.136	-219.89		-0.78	0.000
105.73	19.506	-13.413	50.84	0.42	6.347	4.100	-206.40		-0.78	0.000
106.02	19.440	-12.849	50.91	0.42	6.302	4.065	-172.18		-0.78	0.000
106.29	19.377	-12.260	50.97	0.42	6.282	4.051	-150.02		-0.78	0.000
106.57	19.318	-11.611	51.03	0.42	6.239	4.029	-105.89		-0.78	0.000
106.84	19.280	-10.974	51.07	0.42	6.208	4.007	-73.62		-0.78	0.000
107.11	19.229	-10.276	51.12	0.42	6.178	3.992	5.39		-0.78	0.000
107.38	19.179	-9.579	51.17	0.42	6.153	3.981	31.74		-0.78	0.000
107.66	19.131	-8.834	51.22	0.42	6.141	3.969	65.75		-0.78	0.000
107.92	19.103	-8.101	51.25	0.42	6.113	3.963	84.59		-0.78	0.000
108.19	19.067	-7.320	51.28	0.42	6.106	3.955	109.15		-0.78	0.000
108.47	19.033	-6.538	51.32	0.42	6.093	3.951	114.75		-0.78	0.000
108.74	19.012	-5.733	51.34	0.42	6.084	3.946	94.54		-0.78	0.000
109.01	18.986	-4.892	51.36	0.42	6.077	3.945	66.94		-0.78	0.000
109.27	18.963	-4.063	51.39	0.42	6.075	3.944	10.55		-0.78	0.000
109.54	18.952	-3.209	51.40	0.42	6.072	3.943	-19.48		-0.78	0.000
109.82	18.940	-2.380	51.41	0.42	6.060	3.943	-85.10		-0.78	0.000
110.08	18.931	-1.538	51.42	0.42	6.078	3.944	-121.90		-0.78	0.000
110.35	18.927	-0.649	51.42	0.42	6.070	3.946	-171.08		-0.79	0.000
110.62	18.927	0.192	51.42	0.42	6.075	3.947	-196.70		-0.79	0.000
110.89	18.927	1.058	51.42	0.42	6.086	3.952	-255.14		-0.79	0.000
111.16	18.927	1.899	51.42	0.42	6.074	3.954	-281.17		-0.79	0.000
111.43	18.927	2.752	51.42	0.42	6.087	3.959	-292.64		-0.79	0.000
111.69	18.943	3.594	51.41	0.42	6.084	3.961	-268.23		-0.79	0.000
111.98	18.967	4.435	51.38	0.42	6.090	3.963	-196.41		-0.79	0.000
112.25	18.984	5.252	51.37	0.42	6.084	3.967	-155.29		-0.79	0.000
112.52	19.012	6.118	51.34	0.42	6.093	3.970	-82.01		-0.79	0.000
112.79	19.047	6.911	51.30	0.42	6.100	3.973	-50.76		-0.79	0.000
113.07	19.070	7.704	51.28	0.42	6.090	3.974	-14.41		-0.79	0.000
113.33	19.111	8.462	51.24	0.42	6.107	3.978	0.87		-0.79	0.000
113.60	19.154	9.207	51.20	0.42	6.098	3.980	20.92		-0.79	0.000
113.86	19.189	9.904	51.16	0.42	6.104	3.983	37.85		-0.79	0.000
114.14	19.238	10.601	51.11	0.42	6.116	3.985	77.39		-0.79	0.000
114.41	19.293	11.238	51.06	0.42	6.128	3.988	93.95		-0.79	0.000
114.68	19.331	11.887	51.02	0.42	6.144	3.995	107.63		-0.79	0.000
114.95	19.390	12.488	50.96	0.42	6.141	4.003	99.86		-0.79	0.000
115.22	19.457	13.053	50.89	0.42	6.160	4.011	62.27		-0.79	0.000
115.49	19.501	13.582	50.85	0.42	6.172	4.021	39.09		-0.79	0.000
115.76	19.568	14.087	50.78	0.42	6.193	4.026	-0.28		-0.79	0.000
116.02	19.640	14.543	50.71	0.41	6.215	4.037	-3.54		-0.79	0.000
116.29	19.715	14.976	50.64	0.41	6.217	4.045	-19.16		-0.79	0.000
116.56	19.763	15.349	50.59	0.41	6.243	4.059	-24.00		-0.79	0.000
116.83	19.844	15.697	50.51	0.41	6.253	4.068	-56.63		-0.79	0.000
117.10	19.921	16.010	50.43	0.41	6.275	4.081	-87.02		-0.79	0.000
117.37	19.975	16.274	50.38	0.41	6.295	4.091	-170.00		-0.79	0.000
117.65	20.057	16.490	50.29	0.41	6.321	4.104	-216.39		-0.79	0.000
117.92	20.140	16.683	50.21	0.41	6.349	4.111	-291.56		-0.79	0.000
118.19	20.195	16.815	50.15	0.41	6.414	4.128	-322.62		-0.79	0.000
118.47	20.281	16.911	50.07	0.41	6.470	4.153	-344.43		-0.79	0.000
118.74	20.365	16.959	49.99	0.41	6.531	4.183	-343.12		-0.79	0.000
119.01	20.450	16.959	49.90	0.41	6.610	4.215	-312.86		-0.79	0.000
119.29	20.506	16.923	49.84	0.41	6.683	4.258	-285.79		-0.79	0.000
119.56	20.590	16.839	49.76	0.41	6.720	4.302	-246.42		-0.79	0.000
119.83	20.675	16.707	49.68	0.41	6.831	4.355	-221.88		-0.79	0.000
120.11	20.729	16.526	49.62	0.41	6.928	4.421	-177.88		-0.79	0.000
120.38	20.811	16.310	49.54	0.41	7.059	4.492	-157.54		-0.79	0.000
120.65	20.893	16.046	49.46	0.40	7.188	4.534	-113.16		-0.79	0.000
120.92	20.971	15.745	49.38	0.40	7.329	4.628	-90.23		-0.79	0.000
121.19	21.025	15.397	49.33	0.40	7.494	4.733	-40.98		-0.79	0.000
121.46	21.099	15.024	49.25	0.40	7.648	4.848	-26.27		-0.79	0.000
121.74	21.174	14.591	49.18	0.40	7.820	4.971	-36.28		-0.79	0.000
122.01	21.222	14.135	49.13	0.40	7.901	5.101	-56.50		-0.79	0.000
122.28	21.291	13.630	49.06	0.40	8.066	5.235	-118.45		-0.79	0.000
122.56	21.357	13.101	48.99	0.40	8.227	5.372	-138.60		-0.79	0.000
122.83	21.421	12.524	48.93	0.40	8.377	5.507	-164.37		-0.79	0.000
123.11	21.462	11.923	48.89	0.40	8.524	5.640	-164.08		-0.79	0.000
123.38	21.518	11.274	48.83	0.40	8.666	5.704	-163.23		-0.79	0.000
123.66	21.575	10.601	48.78	0.40	8.817	5.831	-162.76		-0.79	0.000
123.93	21.625	9.892	48.73	0.40	8.923	5.954	-147.25		-0.79	0.000
124.21	21.658	9.159	48.69	0.40	9.061	6.071	-143.36		-0.79	0.000
124.48	21.703	8.413	48.65	0.40	9.115	6.179	-145.89		-0.79	0.000
124.76	21.740	7.632	48.61	0.40	9.213	6.281	-157.18		-0.79	0.000
125.03	21.776	6.851	48.57	0.40	9.319	6.377	-171.83		-0.79	0.000
125.30	21.798	6.034	48.55	0.40	9.397	6.461	-174.68		-0.79	0.000
125.58	21.826	5.216	48.52	0.40	9.477	6.535	-192.66		-0.79	0.000
125.85	21.850	4.375	48.50	0.40	9.536	6.600	-197.75		-0.79	0.000
126.12	21.861	3.510	48.49	0.40	9.585	6.658	-200.17		-0.79	0.000
126.39	21.871	2.656	48.48	0.40	9.626	6.685	-207.63		-0.79	0.000
126.65	21.884	1.803	48.47	0.40	9.658	6.722	-242.55		-0.79	0.000
126.92	21.890	0.962	48.46	0.40	9.673	6.749	-276.97		-0.79	0.000
127.19	21.891	0.096	48.46	0.40	9.675	6.771	-357.19		-0.79	0.000
127.46	21.891	-0.745	48.46	0.40	9.678	6.779	-387.96		-0.79	0.000
127.73	21.891	-1.587	48.46	0.40	9.672	6.781	-417.06		-0.79	0.000
128.00	21.891	-2.440	48.46	0.40	9.670	6.778	-418.66		-0.79	0.000
128.27	21.882	-3.305	48.47	0.40	9.673	6.771	-404.39		-0.79	0.000
128.55	21.866	-4.147	48.48	0.40	9.660	6.765	-407.87		-0.79	0.000
128.82	21.844	-4.976	48.51	0.40	9.647	6.758	-408.44		-0.79	0.000
129.09	21.816	-5.817	48.53	0.40	9.629	6.748	-405.32		-0.79	0.000
129.37	21.785	-6.635	48.56	0.40	9.588	6.731	-382.70		-0.79	0.000
129.64	21.761	-7.416	48.59	0.40	9.549	6.703	-371.32		-0.79	0.000
129.92	21.722	-8.221	48.63	0.40	9.516	6.655	-348.61		-0.79	0.000
130.19	21.679	-8.966	48.67	0.40	9.502	6.605	-326.50		-0.79	0.000
130.47	21.631	-9.700	48.72	0.40	9.494	6.574	-280.69		-0.79	0.000
130.75	21.598	-10.409	48.75	0.40	9.465	6.553	-227.42		-0.79	0.000
131.02	21.544	-11.094	48.81	0.40	9.406	6.530	-200.06		-0.79	0.000
131.30	21.488	-11.743	48.86	0.40	9.336	6.488	-124.29		-0.79	0.000
131.57	21.426	-12.380	48.92	0.40	9.237	6.455	-87.82		-0.79	0.000
131.84	21.385	-12.957	48.96	0.40	9.195	6.376	-21.13		-0.79	0.000
132.12	21.318	-13.498	49.03	0.40	9.084	6.280	9.55		-0.79	0.000
132.39	21.249	-14.002	49.10	0.40	8.972	6.172	76.74		-0.79	0.000
132.66	21.200	-14.495	49.15	0.40	8.861	6.060	116.19		-0.79	0.000
132.94	21.127	-14.916	49.22	0.40	8.742	5.944	182.77		-0.79	0.000
133.21	21.053	-15.312	49.30	0.40	8.623	5.823	209.58		-0.79	0.000
133.48	20.976	-15.673	49.37	0.40	8.503	5.708	205.23		-0.79	0.000
133.75	20.922	-15.986	49.43	0.40	8.392	5.591	177.74		-0.79	0.000
134.03	20.841	-16.250	49.51	0.40	8.269	5.476	106.13		-0.79	0.000
134.30	20.759	-16.490	49.59	0.41	8.200	5.421	80.02		-0.79	0.000
134.57	20.704	-16.671	49.65	0.41	8.086	5.315	51.04		-0.79	0.000
134.84	20.621	-16.815	49.73	0.41	7.945	5.212	42.95		-0.79	0.000
135.11	20.536	-16.911	49.81	0.41	7.760	5.113	27.56		-0.79	0.000
135.38	20.479	-16.959	49.87	0.41	7.604	4.994	12.28		-0.79	0.000
135.66	20.394	-16.971	49.96	0.41	7.439	4.868	-33.30		-0.79	0.000
135.93	20.309	-16.923	50.04	0.41	7.282	4.752	-49.98		-0.79	0.000
136.21	20.225	-16.851	50.13	0.41	7.152	4.643	-75.07		-0.79	0.000
136.48	20.171	-16.719	50.18	0.41	7.014	4.544	-59.72		-0.79	0.000
136.76	20.086	-16.538	50.26	0.41	6.950	4.452	7.36		-0.79	0.000
137.03	20.006	-16.334	50.34	0.41	6.836	4.409	42.45		-0.79	0.000
137.31	19.925	-16.070	50.43	0.41	6.722	4.331	81.81		-0.79	0.000
137.57	19.871	-15.769	50.48	0.41	6.617	4.263	86.31		-0.79	0.000
137.85	19.794	-15.421	50.56	0.41	6.530	4.200	82.32		-0.79	0.000
138.12	19.717	-15.048	50.63	0.41	6.440	4.146	83.40		-0.79	0.000
138.40	19.667	-14.615	50.68	0.41	6.376	4.096	118.22		-0.79	0.000
138.67	19.595	-14.159	50.75	0.41	6.305	4.055	145.49		-0.79	0.000
138.94	19.526	-13.642	50.82	0.42	6.246	4.020	183.43		-0.79	0.000
139.21	19.461	-13.113	50.89	0.42	6.220	3.989	188.40		-0.79	0.000
139.49	19.417	-12.536	50.93	0.42	6.181	3.960	185.17		-0.79	0.000
139.76	19.356	-11.935	50.99	0.42	6.142	3.948	175.62		-0.79	0.000
140.03	19.297	-11.310	51.05	0.42	6.115	3.927	143.71		-0.79	0.000
140.30	19.261	-10.649	51.09	0.42	6.084	3.914	131.45		-0.79	0.000
140.58	19.208	-9.952	51.14	0.42	6.063	3.901	123.35		-0.79	0.000
140.85	19.162	-9.231	51.19	0.42	6.044	3.889	125.12		-0.79	0.000
141.12	19.118	-8.474	51.23	0.42	6.032	3.881	121.69		-0.79	0.000
141.39	19.090	-7.716	51.26	0.42	6.018	3.875	115.55		-0.79	0.000
141.67	19.054	-6.935	51.30	0.42	6.008	3.870	110.10		-0.79	0.000
141.94	19.022	-6.142	51.33	0.42	6.005	3.867	118.77		-0.79	0.000
142.21	19.004	-5.300	51.35	0.42	5.998	3.864	156.28		-0.79	0.000
142.48	18.979	-4.471	51.37	0.42	5.993	3.864	168.02		-0.79	0.000
142.76	18.959	-3.618	51.39	0.42	5.987	3.862	172.91		-0.79	0.000
143.03	18.948	-2.776	51.40	0.42	5.983	3.863	161.68		-0.79	0.000
143.30	18.939	-1.911	51.41	0.42	5.991	3.863	99.19		-0.79	0.000
143.56	18.934	-1.046	51.42	0.42	5.993	3.863	66.33		-0.79	0.000
143.83	18.931	-0.180	51.42	0.42	5.988	3.866	11.77		-0.79	0.000
144.09	18.931	0.661	51.42	0.42	5.996	3.869	-10.83		-0.79	0.000
144.36	18.931	1.526	51.42	0.42	5.998	3.873	-69.24		-0.79	0.000
144.63	18.931	2.344	51.42	0.42	6.006	3.874	-107.46		-0.79	0.000
144.90	18.938	3.197	51.41	0.42	6.008	3.877	-183.22		-0.79	0.000
145.17	18.957	4.038	51.39	0.42	6.008	3.879	-209.70		-0.79	0.000
145.44	18.979	4.880	51.37	0.42	6.009	3.882	-218.24		-0.79	0.000
145.72	18.998	5.697	51.35	0.42	6.015	3.883	-199.45		-0.79	0.000
146.00	19.029	6.514	51.32	0.42	6.017	3.886	-135.80		-0.79	0.000
146.26	19.065	7.308	51.29	0.42	6.019	3.887	-100.11		-0.79	0.000
146.54	19.102	8.101	51.25	0.42	6.019	3.889	-78.71		-0.79	0.000
146.81	19.131	8.846	51.22	0.42	6.026	3.891	-83.28		-0.79	0.000
147.09	19.177	9.579	51.17	0.42	6.023	3.892	-102.88		-0.79	0.000
147.36	19.226	10.276	51.12	0.42	6.039	3.894	-102.00		-0.79	0.000
147.63	19.262	10.986	51.09	0.42	6.031	3.896	-66.74		-0.79	0.000
147.90	19.318	11.623	51.03	0.42	6.047	3.898	-52.01		-0.79	0.000
148.18	19.379	12.248	50.97	0.42	6.059	3.903	-41.03		-0.79	0.000
148.44	19.420	12.825	50.93	0.42	6.061	3.909	-59.79		-0.79	0.000
148.72	19.484	13.389	50.87	0.42	6.082	3.917	-111.62		-0.79	0.000
148.99	19.554	13.882	50.80	0.42	6.097	3.923	-144.20		-0.79	0.000
149.27	19.624	14.375	50.73	0.41	6.114	3.934	-171.98		-0.79	0.000
149.54	19.672	14.820	50.68	0.41	6.125	3.942	-173.35		-0.79	0.000
149.82	19.747	15.228	50.60	0.41	6.142	3.947	-152.82		-0.79	0.000
150.08	19.825	15.589	50.53	0.41	6.161	3.957	-143.35		-0.79	0.000
150.36	19.879	15.925	50.47	0.41	6.182	3.967	-143.91		-0.79	0.000
150.63	19.957	16.190	50.39	0.41	6.190	3.979	-147.27		-0.79	0.000
150.90	20.040	16.442	50.31	0.41	6.217	3.988	-151.19		-0.79	0.000
151.18	20.121	16.635	50.23	0.41	6.267	4.002	-170.02		-0.79	0.000
151.45	20.177	16.779	50.17	0.41	6.302	4.022	-180.32		-0.79	0.000
151.72	20.262	16.887	50.09	0.41	6.364	4.048	-189.90		-0.79	0.000
151.99	20.347	16.947	50.00	0.41	6.420	4.076	-200.04		-0.79	0.000
152.27	20.431	16.971	49.92	0.41	6.481	4.107	-236.61		-0.79	0.000
152.54	20.488	16.935	49.86	0.41	6.552	4.124	-264.99		-0.79	0.000
152.81	20.572	16.863	49.78	0.41	6.631	4.161	-313.80		-0.79	0.000
153.08	20.656	16.755	49.69	0.41	6.678	4.206	-327.94		-0.79	0.000
153.36	20.711	16.587	49.64	0.41	6.774	4.259	-315.85		-0.79	0.000
153.63	20.794	16.382	49.56	0.41	6.887	4.323	-305.41		-0.79	0.000
153.90	20.875	16.142	49.48	0.40	7.012	4.398	-269.81		-0.79	0.000
154.18	20.929	15.853	49.42	0.40	7.150	4.486	-245.84		-0.79	0.000
154.45	21.006	15.505	49.34	0.40	7.283	4.584	-222.54		-0.79	0.000
154.72	21.082	15.132	49.27	0.40	7.423	4.693	-218.63		-0.79	0.000
154.99	21.158	14.724	49.19	0.40	7.584	4.803	-223.97		-0.79	0.000
155.27	21.207	14.267	49.14	0.40	7.734	4.865	-212.34		-0.79	0.000
155.54	21.277	13.774	49.07	0.40	7.810	4.988	-169.47		-0.79	0.000
155.81	21.343	13.245	49.01	0.40	7.978	5.113	-144.81		-0.79	0.000
156.08	21.388	12.692	48.96	0.40	8.130	5.244	-114.67		-0.79	0.000
156.36	21.449	12.091	48.90	0.40	8.282	5.373	-112.81		-0.79	0.000
156.63	21.507	11.466	48.84	0.40	8.422	5.504	-125.47		-0.79	0.000
156.90	21.562	10.805	48.79	0.40	8.566	5.629	-134.57		-0.79	0.000
157.18	21.599	10.120	48.75	0.40	8.698	5.751	-119.72		-0.79	0.000
157.45	21.645	9.411	48.70	0.40	8.814	5.867	-96.75		-0.79	0.000
157.72	21.691	8.666	48.66	0.40	8.936	5.978	-28.51		-0.79	0.000
157.99	21.720	7.897	48.63	0.40	8.988	6.027	12.33		-0.79	0.000
158.26	21.757	7.127	48.59	0.40	9.090	6.125	67.76		-0.79	0.000
158.53	21.789	6.334	48.56	0.40	9.181	6.218	85.77		-0.79	0.000
158.80	21.820	5.517	48.53	0.40	9.261	6.298	88.80		-0.79	0.000
159.07	21.836	4.700	48.51	0.40	9.323	6.372	79.64		-0.79	0.000
159.34	21.858	3.858	48.49	0.40	9.378	6.433	52.10		-0.79	0.000
159.60	21.871	3.017	48.48	0.40	9.420	6.485	35.37		-0.79	0.000
159.87	21.879	2.163	48.47	0.40	9.441	6.527	-15.64		-0.79	0.000
160.13	21.888	1.322	48.46	0.40	9.468	6.542	-51.58		-0.79	0.000
160.40	21.890	0.481	48.46	0.40	9.475	6.568	-137.67		-0.79	0.000
160.67	21.891	-0.361	48.46	0.40	9.487	6.585	-190.12		-0.79	0.000
160.94	21.891	-1.214	48.46	0.40	9.487	6.590	-303.06		-0.79	0.000
161.21	21.891	-2.067	48.46	0.40	9.478	6.590	-349.85		-0.79	0.000
161.48	21.891	-2.921	48.46	0.40	9.485	6.585	-389.41		-0.79	0.000
161.75	21.875	-3.762	48.48	0.40	9.469	6.578	-435.97		-0.79	0.000
162.02	21.852	-4.603	48.50	0.40	9.468	6.570	-441.34		-0.79	0.000
162.30	21.832	-5.445	48.52	0.40	9.453	6.567	-447.20		-0.79	0.000
162.57	21.804	-6.238	48.55	0.40	9.410	6.555	-423.06		-0.79	0.000
162.85	21.770	-7.055	48.58	0.40	9.375	6.540	-403.01		-0.79	0.000
163.13	21.731	-7.849	48.62	0.40	9.329	6.500	-363.37		-0.79	0.000
163.40	21.706	-8.618	48.64	0.40	9.317	6.450	-344.48		-0.79	0.000
163.68	21.659	-9.363	48.69	0.40	9.297	6.411	-313.74		-0.79	0.000
163.95	21.611	-10.084	48.74	0.40	9.283	6.381	-289.73		-0.79	0.000
164.23	21.576	-10.793	48.77	0.40	9.248	6.362	-243.24		-0.79	0.000
164.49	21.522	-11.454	48.83	0.40	9.164	6.333	-226.37		-0.79	0.000
164.77	21.461	-12.079	48.89	0.40	9.125	6.277	-217.49		-0.79	0.000
165.04	21.400	-12.668	48.95	0.40	9.029	6.196	-209.22		-0.79	0.000
165.32	21.358	-13.233	48.99	0.40	8.922	6.150	-227.49		-0.79	0.000
165.59	21.289	-13.762	49.06	0.40	8.820	6.046	-236.97		-0.79	0.000
165.87	21.220	-14.267	49.13	0.40	8.708	5.936	-250.64		-0.79	0.000
166.15	21.147	-14.724	49.20	0.40	8.595	5.823	-240.52		-0.79	0.000
166.41	21.097	-15.144	49.25	0.40	8.465	5.710	-193.11		-0.79	0.000
166.69	21.021	-15.517	49.33	0.40	8.354	5.593	-171.81		-0.79	0.000
166.97	20.941	-15.841	49.41	0.40	8.228	5.478	-163.43		-0.79	0.000
167.23	20.890	-16.142	49.46	0.40	8.176	5.364	-166.08		-0.79	0.000
167.52	20.807	-16.394	49.54	0.41	8.060	5.258	-141.10		-0.79	0.000
167.79	20.726	-16.587	49.62	0.41	7.943	5.152	-109.46		-0.79	0.000
168.07	20.641	-16.755	49.71	0.41	7.831	5.052	-41.88		-0.79	0.000
168.33	20.586	-16.875	49.76	0.41	7.662	5.004	-15.23		-0.79	0.000
168.61	20.502	-16.947	49.85	0.41	7.491	4.904	2.64		-0.79	0.000
168.88	20.417	-16.971	49.93	0.41	7.330	4.786	5.17		-0.79	0.000
169.15	20.330	-16.947	50.02	0.41	7.178	4.670	-8.26		-0.79	0.000
169.42	20.275	-16.887	50.08	0.41	7.048	4.561	-17.18		-0.79	0.000
169.70	20.192	-16.779	50.16	0.41	6.913	4.460	-4.15		-0.79	0.000
169.97	20.108	-16.623	50.24	0.41	6.850	4.370	9.64		-0.79	0.000
170.24	20.053	-16.430	50.30	0.41	6.731	4.286	39.90		-0.79	0.000
170.51	19.970	-16.190	50.38	0.41	6.616	4.210	44.76		-0.79	0.000
170.78	19.890	-15.913	50.46	0.41	6.522	4.175	29.14		-0.79	0.000
171.05	19.836	-15.589	50.51	0.41	6.426	4.113	3.13		-0.79	0.000
171.32	19.761	-15.228	50.59	0.41	6.346	4.058	-47.55		-0.79	0.000
171.59	19.685	-14.832	50.66	0.41	6.272	4.009	-67.14		-0.79	0.000
171.87	19.612	-14.387	50.74	0.41	6.212	3.968	-108.07		-0.79	0.000
172.14	19.566	-13.906	50.78	0.42	6.188	3.933	-123.25		-0.79	0.000
172.42	19.498	-13.377	50.85	0.42	6.138	3.904	-130.31		-0.79	0.000
172.70	19.433	-12.825	50.92	0.42	6.094	3.877	-129.61		-0.79	0.000
172.97	19.390	-12.224	50.96	0.42	6.059	3.855	-132.15		-0.79	0.000
173.23	19.329	-11.599	51.02	0.42	6.021	3.840	-141.06		-0.79	0.000
173.51	19.274	-10.950	51.08	0.42	5.997	3.833	-165.40		-0.79	0.000
173.80	19.221	-10.276	51.13	0.42	5.973	3.820	-163.14		-0.79	0.000
174.06	19.188	-9.555	51.16	0.42	5.957	3.812	-146.18		-0.79	0.000
174.34	19.143	-8.786	51.21	0.42	5.943	3.803	-122.59		-0.79	0.000
174.62	19.101	-8.053	51.25	0.42	5.927	3.799	-116.60		-0.79	0.000
174.89	19.063	-7.260	51.29	0.42	5.921	3.793	-106.29		-0.79	0.000
175.16	19.040	-6.454	51.31	0.42	5.917	3.789	-110.37		-0.79	0.000
175.44	19.011	-5.637	51.34	0.42	5.904	3.787	-135.51		-0.79	0.000
175.71	18.985	-4.808	51.36	0.42	5.904	3.786	-157.93		-0.79	0.000
175.99	18.963	-3.954	51.39	0.42	5.904	3.786	-208.94		-0.79	0.000
176.26	18.954	-3.101	51.40	0.42	5.897	3.787	-232.82		-0.79	0.000
176.53	18.939	-2.236	51.41	0.42	5.891	3.787	-272.99		-0.79	0.000
176.80	18.931	-1.370	51.42	0.42	5.899	3.786	-284.93		-0.79	0.000
177.07	18.930	-0.517	51.42	0.42	5.901	3.790	-284.01		-0.79	0.000
177.34	18.930	0.349	51.42	0.42	5.914	3.792	-261.93		-0.79	0.000
177.61	18.930	1.202	51.42	0.42	5.910	3.795	-208.32		-0.79	0.000
177.87	18.930	2.067	51.42	0.42	5.913	3.800	-177.02		-0.79	0.000
178.14	18.931	2.933	51.42	0.42	5.918	3.803	-124.73		-0.79	0.000
178.42	18.952	3.762	51.40	0.42	5.917	3.805	-93.62		-0.79	0.000
178.69	18.966	4.591	51.38	0.42	5.917	3.808	-68.00		-0.79	0.000
178.96	18.993	5.445	51.36	0.42	5.919	3.809	-69.04		-0.79	0.000
179.24	19.021	6.238	51.33	0.42	5.925	3.811	-81.73		-0.79	0.000
179.51	19.057	7.043	51.29	0.42	5.932	3.815	-93.48		-0.79	0.000
179.79	19.080	7.837	51.27	0.42	5.927	3.816	-104.95		-0.79	0.000
180.06	19.121	8.606	51.23	0.42	5.933	3.817	-111.97		-0.79	0.000
180.34	19.166	9.351	51.18	0.42	5.931	3.819	-131.31		-0.79	0.000
180.61	19.215	10.072	51.14	0.42	5.942	3.821	-146.73		-0.79	0.000
180.89	19.251	10.781	51.10	0.42	5.949	3.825	-199.11		-0.79	0.000
181.16	19.306	11.430	51.04	0.42	5.955	3.830	-234.32		-0.79	0.000
181.43	19.365	12.067	50.99	0.42	5.971	3.834	-298.04		-0.79	0.000
181.70	19.406	12.656	50.94	0.42	5.975	3.842	-307.09		-0.79	0.000
181.97	19.470	13.221	50.88	0.42	5.995	3.844	-304.18		-0.79	0.000
182.24	19.538	13.750	50.81	0.42	6.010	3.854	-292.13		-0.79	0.000
182.52	19.608	14.243	50.74	0.41	6.018	3.861	-252.83		-0.79	0.000
182.80	19.657	14.700	50.69	0.41	6.036	3.869	-234.43		-0.79	0.000
183.08	19.731	15.120	50.62	0.41	6.047	3.877	-201.37		-0.79	0.000
183.35	19.807	15.505	50.54	0.41	6.062	3.885	-184.61		-0.79	0.000
183.63	19.888	15.841	50.46	0.41	6.088	3.895	-139.99		-0.79	0.000
183.89	19.939	16.130	50.41	0.41	6.096	3.905	-107.92		-0.79	0.000
184.17	20.021	16.382	50.33	0.41	6.125	3.915	-19.81		-0.79	0.000
184.44	20.104	16.575	50.25	0.41	6.160	3.928	30.64		-0.79	0.000
184.71	20.157	16.743	50.19	0.41	6.197	3.935	135.00		-0.79	0.000
184.98	20.243	16.863	50.11	0.41	6.229	3.955	185.87		-0.79	0.000
185.25	20.327	16.935	50.02	0.41	6.286	3.977	249.39		-0.79	0.000
185.51	20.384	16.971	49.97	0.41	6.350	4.006	248.17		-0.79	0.000
185.79	20.470	16.947	49.88	0.41	6.414	4.037	217.75		-0.79	0.000
186.05	20.553	16.899	49.80	0.41	6.480	4.071	201.94		-0.79	0.000
186.32	20.609	16.791	49.74	0.41	6.569	4.112	171.01		-0.79	0.000
186.59	20.693	16.647	49.66	0.41	6.658	4.161	162.02		-0.79	0.000
186.87	20.775	16.466	49.58	0.41	6.707	4.188	146.12		-0.79	0.000
187.13	20.830	16.226	49.52	0.40	6.815	4.249	139.63		-0.79	0.000
187.41	20.911	15.950	49.44	0.40	6.938	4.322	132.39		-0.79	0.000
187.68	20.989	15.637	49.36	0.40	7.076	4.406	130.30		-0.79	0.000
187.95	21.066	15.288	49.28	0.40	7.214	4.503	106.34		-0.79	0.000
188.22	21.117	14.880	49.23	0.40	7.357	4.610	81.34		-0.79	0.000
188.49	21.190	14.447	49.16	0.40	7.510	4.723	29.56		-0.79	0.000
188.76	21.262	13.978	49.09	0.40	7.665	4.842	-1.46		-0.79	0.000
189.03	21.307	13.462	49.04	0.40	7.739	4.965	-38.76		-0.79	0.000
189.30	21.372	12.933	48.98	0.40	7.895	5.028	-47.41		-0.79	0.000
189.57	21.436	12.356	48.91	0.40	8.053	5.158	-77.40		-0.79	0.000
189.85	21.477	11.743	48.87	0.40	8.193	5.289	-107.70		-0.79	0.000
190.13	21.534	11.094	48.82	0.40	8.340	5.417	-188.24		-0.79	0.000
190.40	21.586	10.409	48.76	0.40	8.462	5.540	-227.76		-0.79	0.000
190.67	21.636	9.688	48.71	0.40	8.589	5.659	-280.61		-0.79	0.000
190.95	21.668	8.966	48.68	0.40	8.710	5.767	-280.85		-0.79	0.000
191.22	21.711	8.209	48.64	0.40	8.819	5.876	-232.07		-0.79	0.000
191.49	21.750	7.440	48.60	0.40	8.869	5.975	-196.69		-0.79	0.000
191.77	21.785	6.647	48.56	0.40	8.969	6.063	-143.09		-0.79	0.000
192.04	21.806	5.829	48.54	0.40	9.055	6.109	-138.75		-0.79	0.000
192.31	21.830	5.000	48.52	0.40	9.121	6.188	-182.41		-0.79	0.000
192.58	21.854	4.171	48.50	0.40	9.180	6.253	-203.91		-0.79	0.000
192.86	21.863	3.305	48.49	0.40	9.231	6.314	-226.54		-0.79	0.000
193.12	21.877	2.452	48.47	0.40	9.268	6.365	-224.89		-0.79	0.000
193.40	21.885	1.587	48.46	0.40	9.293	6.402	-240.93		-0.79	0.000
193.66	21.893	0.733	48.46	0.40	9.303	6.430	-262.17		-0.79	0.000
193.93	21.893	-0.120	48.46	0.40	9.302	6.447	-318.57		-0.79	0.000
194.20	21.893	-0.974	48.46	0.40	9.313	6.454	-352.07		-0.79	0.000
194.47	21.893	-1.839	48.46	0.40	9.307	6.454	-432.87		-0.79	0.000
194.74	21.893	-2.680	48.46	0.40	9.313	6.454	-466.85		-0.79	0.000
195.01	21.877	-3.534	48.47	0.40	9.304	6.448	-510.28		-0.79	0.000
195.28	21.854	-4.363	48.50	0.40	9.293	6.442	-513.45		-0.79	0.000
195.56	21.840	-5.216	48.51	0.40	9.270	6.437	-487.22		-0.79	0.000
195.83	21.811	-6.022	48.54	0.40	9.258	6.425	-467.05		-0.79	0.000
196.10	21.777	-6.851	48.57	0.40	9.225	6.405	-447.88		-0.79	0.000
196.38	21.754	-7.644	48.60	0.40	9.170	6.365	-442.20		-0.79	0.000
196.66	21.715	-8.401	48.64	0.40	9.152	6.316	-431.10		-0.79	0.000
196.93	21.670	-9.171	48.68	0.40	9.132	6.277	-418.50		-0.79	0.000
197.21	21.621	-9.904	48.73	0.40	9.127	6.265	-374.56		-0.79	0.000
197.48	21.588	-10.601	48.76	0.40	9.099	6.245	-304.88		-0.79	0.000
197.76	21.535	-11.274	48.81	0.40	9.028	6.221	-257.77		-0.79	0.000
198.03	21.476	-11.911	48.87	0.40	8.949	6.182	-167.59		-0.79	0.000
198.31	21.415	-12.524	48.94	0.40	8.858	6.116	-131.77		-0.79	0.000
198.58	21.372	-13.101	48.98	0.40	8.758	6.029	-85.14		-0.79	0.000
198.86	21.306	-13.642	49.04	0.40	8.701	5.927	-64.24		-0.79	0.000
199.13	21.236	-14.135	49.11	0.40	8.589	5.816	-30.06		-0.79	0.000
199.40	21.165	-14.603	49.19	0.40	8.471	5.706	-3.45		-0.79	0.000
199.67	21.115	-15.036	49.24	0.40	8.343	5.590	53.94		-0.79	0.000
199.95	21.039	-15.409	49.31	0.40	8.236	5.474	72.56		-0.79	0.000
200.22	20.961	-15.757	49.39	0.40	8.110	5.415	106.07		-0.79	0.000
200.49	20.907	-16.058	49.44	0.40	7.995	5.304	112.28		-0.79	0.000
200.77	20.826	-16.322	49.52	0.40	7.879	5.195	103.43		-0.79	0.000
201.04	20.745	-16.538	49.60	0.41	7.773	5.090	82.73		-0.79	0.000
201.31	20.661	-16.707	49.69	0.41	7.717	4.989	30.53		-0.79	0.000
201.57	20.606	-16.839	49.74	0.41	7.567	4.892	12.07		-0.79	0.000
201.84	20.521	-16.923	49.83	0.41	7.398	4.794	9.05		-0.79	0.000
202.11	20.436	-16.959	49.91	0.41	7.232	4.675	14.50		-0.79	0.000
202.38	20.380	-16.959	49.97	0.41	7.086	4.614	31.72		-0.79	0.000
202.65	20.295	-16.911	50.05	0.41	6.946	4.505	42.37		-0.79	0.000
202.93	20.211	-16.827	50.14	0.41	6.822	4.399	79.77		-0.79	0.000
203.20	20.154	-16.683	50.20	0.41	6.762	4.308	87.43		-0.79	0.000
203.47	20.072	-16.502	50.28	0.41	6.635	4.224	74.70		-0.79	0.000
203.74	19.989	-16.286	50.36	0.41	6.541	4.149	67.78		-0.79	0.000
204.02	19.935	-16.022	50.41	0.41	6.432	4.083	74.06		-0.79	0.000
204.29	19.856	-15.709	50.49	0.41	6.350	4.026	68.49		-0.79	0.000
204.55	19.779	-15.349	50.57	0.41	6.262	3.974	21.52		-0.79	0.000
204.83	19.702	-14.976	50.65	0.41	6.191	3.930	-19.75		-0.79	0.000
205.11	19.654	-14.555	50.70	0.41	6.133	3.910	-109.05		-0.79	0.000
205.38	19.581	-14.075	50.77	0.42	6.059	3.872	-145.15		-0.79	0.000
205.66	19.515	-13.570	50.84	0.42	6.046	3.844	-206.52		-0.79	0.000
205.93	19.448	-13.017	50.90	0.42	6.004	3.814	-228.42		-0.79	0.000
206.21	19.403	-12.428	50.95	0.42	5.968	3.793	-220.38		-0.79	0.000
206.48	19.344	-11.815	51.01	0.42	5.940	3.777	-207.09		-0.79	0.000
206.76	19.288	-11.178	51.06	0.42	5.910	3.762	-198.02		-0.79	0.000
207.03	19.251	-10.493	51.10	0.42	5.890	3.755	-194.71		-0.79	0.000
207.30	19.199	-9.796	51.15	0.42	5.872	3.746	-178.44		-0.79	0.000
207.58	19.154	-9.075	51.20	0.42	5.859	3.740	-156.64		-0.79	0.000
207.85	19.111	-8.317	51.24	0.42	5.839	3.736	-98.72		-0.79	0.000
208.12	19.083	-7.536	51.27	0.42	5.840	3.733	-67.25		-0.79	0.000
208.40	19.049	-6.755	51.30	0.42	5.830	3.730	-9.35		-0.79	0.000
208.66	19.015	-5.950	51.34	0.42	5.827	3.728	16.27		-0.79	0.000
208.94	18.990	-5.096	51.36	0.42	5.826	3.724	53.19		-0.79	0.000
209.21	18.975	-4.291	51.38	0.42	5.808	3.723	72.95		-0.79	0.000
209.48	18.958	-3.438	51.39	0.42	5.816	3.725	121.24		-0.79	0.000
209.75	18.947	-2.584	51.40	0.42	5.814	3.727	145.11		-0.79	0.000
210.02	18.936	-1.707	51.41	0.42	5.817	3.729	200.68		-0.79	0.000
210.29	18.931	-0.853	51.42	0.42	5.829	3.732	220.27		-0.79	0.000
210.56	18.930	0.000	51.42	0.42	5.818	3.734	256.36		-0.79	0.000
210.82	18.930	0.865	51.42	0.42	5.832	3.738	260.86		-0.79	0.000
211.09	18.930	1.707	51.42	0.42	5.832	3.739	244.33		-0.79	0.000
211.35	18.938	2.536	51.41	0.42	5.835	3.743	216.29		-0.79	0.000
211.62	18.952	3.377	51.40	0.42	5.841	3.746	155.40		-0.79	0.000
211.89	18.972	4.207	51.38	0.42	5.842	3.748	123.62		-0.79	0.000
212.16	18.997	5.048	51.35	0.42	5.839	3.750	82.40		-0.79	0.000
212.43	19.013	5.853	51.34	0.42	5.844	3.752	69.71		-0.79	0.000
212.70	19.047	6.647	51.30	0.42	5.856	3.753	61.92		-0.79	0.000
212.96	19.083	7.428	51.27	0.42	5.848	3.755	65.79		-0.79	0.000
213.24	19.107	8.197	51.24	0.42	5.858	3.757	79.37		-0.79	0.000
213.51	19.149	8.930	51.20	0.42	5.854	3.758	92.59		-0.79	0.000
213.78	19.198	9.663	51.15	0.42	5.850	3.760	130.56		-0.79	0.000
214.05	19.230	10.361	51.12	0.42	5.872	3.761	152.29		-0.79	0.000
214.32	19.285	11.034	51.06	0.42	5.875	3.763	197.80		-0.79	0.000
214.59	19.339	11.671	51.01	0.42	5.879	3.765	199.38		-0.79	0.000
214.85	19.380	12.284	50.97	0.42	5.894	3.771	178.45		-0.79	0.000
215.13	19.444	12.873	50.91	0.42	5.904	3.777	149.69		-0.79	0.000
215.40	19.511	13.401	50.84	0.42	5.922	3.788	87.31		-0.79	0.000
215.67	19.554	13.930	50.80	0.42	5.931	3.794	51.36		-0.79	0.000
215.94	19.626	14.399	50.72	0.41	5.952	3.802	-28.59		-0.79	0.000
216.22	19.699	14.844	50.65	0.41	5.953	3.808	-73.84		-0.79	0.000
216.49	19.774	15.240	50.58	0.41	5.974	3.817	-173.84		-0.79	0.000
216.76	19.825	15.601	50.53	0.41	5.991	3.825	-228.21		-0.79	0.000
217.03	19.904	15.925	50.45	0.41	6.007	3.834	-315.80		-0.79	0.000
217.31	19.985	16.202	50.36	0.41	6.033	3.840	-338.97		-0.79	0.000
217.58	20.038	16.442	50.31	0.41	6.046	3.847	-353.60		-0.79	0.000
217.85	20.121	16.635	50.23	0.41	6.101	3.856	-356.40		-0.79	0.000
218.13	20.206	16.791	50.14	0.41	6.133	3.874	-370.65		-0.79	0.000
218.40	20.291	16.887	50.06	0.41	6.191	3.897	-378.21		-0.79	0.000
218.67	20.347	16.947	50.00	0.41	6.245	3.921	-370.97		-0.79	0.000
218.95	20.431	16.971	49.92	0.41	6.298	3.948	-366.40		-0.79	0.000
219.22	20.516	16.935	49.83	0.41	6.333	3.978	-362.33		-0.79	0.000
219.50	20.600	16.863	49.75	0.41	6.396	4.011	-365.67		-0.79	0.000
219.77	20.657	16.743	49.69	0.41	6.481	4.055	-377.68		-0.79	0.000
220.05	20.739	16.575	49.61	0.41	6.570	4.080	-382.28		-0.79	0.000
220.32	20.821	16.358	49.53	0.40	6.672	4.128	-387.52		-0.79	0.000
220.59	20.876	16.118	49.47	0.40	6.792	4.194	-393.37		-0.79	0.000
220.86	20.956	15.817	49.39	0.40	6.916	4.269	-403.03		-0.79	0.000
221.14	21.032	15.481	49.32	0.40	7.054	4.358	-407.14		-0.79	0.000
221.41	21.111	15.108	49.24	0.40	7.188	4.458	-420.10		-0.79	0.000
221.68	21.159	14.687	49.19	0.40	7.265	4.563	-429.80		-0.79	0.000
221.95	21.232	14.231	49.12	0.40	7.421	4.678	-443.96		-0.79	0.000
222.23	21.302	13.738	49.05	0.40	7.562	4.797	-440.60		-0.79	0.000
222.50	21.347	13.209	49.00	0.40	7.723	4.921	-401.86		-0.79	0.000
222.77	21.411	12.644	48.94	0.40	7.872	4.982	-377.65		-0.79	0.000
223.05	21.472	12.043	48.88	0.40	8.015	5.112	-342.29		-0.79	0.000
223.32	21.531	11.418	48.82	0.40	8.156	5.240	-315.97		-0.79	0.000
223.59	21.570	10.745	48.78	0.40	8.293	5.365	-243.80		-0.79	0.000
223.86	21.620	10.072	48.73	0.40	8.410	5.487	-197.11		-0.79	0.000
224.14	21.667	9.351	48.68	0.40	8.476	5.602	-94.06		-0.79	0.000
224.41	21.699	8.618	48.65	0.40	8.598	5.709	-41.88		-0.79	0.000
224.68	21.739	7.837	48.61	0.40	8.697	5.813	53.43		-0.79	0.000
224.95	21.776	7.067	48.57	0.40	8.804	5.909	98.01		-0.79	0.000
225.22	21.799	6.274	48.55	0.40	8.885	5.957	173.74		-0.79	0.000
225.49	21.829	5.469	48.52	0.40	8.955	6.041	182.50		-0.79	0.000
225.77	21.854	4.627	48.50	0.40	9.040	6.113	168.96		-0.79	0.000
226.03	21.870	3.798	48.48	0.40	9.083	6.181	158.14		-0.79	0.000
226.30	21.881	2.933	48.47	0.40	9.105	6.238	121.17		-0.79	0.000
226.57	21.897	2.091	48.45	0.40	9.148	6.281	91.81		-0.79	0.000
226.84	21.904	1.226	48.45	0.40	9.163	6.317	-3.19		-0.79	0.000
227.10	21.906	0.385	48.44	0.40	9.196	6.341	-58.46		-0.79	0.000
227.37	21.906	-0.469	48.44	0.40	9.189	6.350	-172.30		-0.79	0.000
227.64	21.906	-1.322	48.44	0.40	9.194	6.361	-221.81		-0.79	0.000
227.91	21.906	-2.175	48.44	0.40	9.193	6.365	-305.77		-0.79	0.000
228.18	21.899	-3.005	48.45	0.40	9.185	6.361	-333.69		-0.79	0.000
228.45	21.880	-3.858	48.47	0.40	9.188	6.358	-317.40		-0.79	0.000
228.72	21.867	-4.688	48.48	0.40	9.172	6.352	-290.08		-0.79	0.000
229.00	21.839	-5.517	48.51	0.40	9.149	6.343	-226.71		-0.79	0.000
229.28	21.811	-6.346	48.54	0.40	9.117	6.332	-193.24		-0.79	0.000
229.56	21.776	-7.151	48.57	0.40	9.078	6.304	-117.67		-0.79	0.000
229.83	21.750	-7.945	48.60	0.40	9.038	6.257	-77.20		-0.79	0.000
230.10	21.707	-8.738	48.64	0.40	9.031	6.235	10.12		-0.79	0.000
230.36	21.662	-9.459	48.69	0.40	9.021	6.196	51.42		-0.79	0.000
230.65	21.612	-10.180	48.74	0.40	8.992	6.169	123.60		-0.79	0.000
230.92	21.577	-10.829	48.77	0.40	8.974	6.150	147.42		-0.79	0.000
231.20	21.522	-11.526	48.83	0.40	8.896	6.121	165.82		-0.79	0.000
231.47	21.461	-12.139	48.89	0.40	8.819	6.065	158.14		-0.79	0.000
231.74	21.421	-12.740	48.93	0.40	8.725	5.986	122.62		-0.79	0.000
232.01	21.356	-13.293	48.99	0.40	8.621	5.891	99.93		-0.79	0.000
232.29	21.289	-13.822	49.06	0.40	8.523	5.785	64.34		-0.79	0.000
232.55	21.218	-14.303	49.13	0.40	8.402	5.677	57.05		-0.79	0.000
232.83	21.170	-14.760	49.18	0.40	8.285	5.621	62.80		-0.79	0.000
233.09	21.095	-15.168	49.25	0.40	8.169	5.507	55.03		-0.79	0.000
233.37	21.018	-15.541	49.33	0.40	8.108	5.394	18.78		-0.79	0.000
233.64	20.965	-15.853	49.39	0.40	7.991	5.279	-8.44		-0.79	0.000
233.91	20.886	-16.154	49.46	0.40	7.878	5.168	-49.40		-0.79	0.000
234.20	20.803	-16.394	49.55	0.41	7.763	5.062	-65.72		-0.79	0.000
234.47	20.722	-16.599	49.63	0.41	7.658	4.961	-72.70		-0.79	0.000
234.75	20.665	-16.767	49.69	0.41	7.533	4.863	-69.07		-0.79	0.000
235.02	20.583	-16.875	49.77	0.41	7.357	4.772	-62.12		-0.79	0.000
235.30	20.498	-16.947	49.85	0.41	7.197	4.659	-79.27		-0.79	0.000
235.58	20.440	-16.971	49.91	0.41	7.043	4.545	-104.05		-0.79	0.000
235.85	20.354	-16.947	50.00	0.41	6.909	4.433	-154.41		-0.79	0.000
236.13	20.270	-16.875	50.08	0.41	6.836	4.377	-162.19		-0.79	0.000
236.40	20.188	-16.755	50.16	0.41	6.713	4.281	-119.27		-0.79	0.000
236.68	20.130	-16.599	50.22	0.41	6.582	4.194	-89.70		-0.79	0.000
236.95	20.049	-16.394	50.30	0.41	6.478	4.113	-16.62		-0.79	0.000
237.22	19.968	-16.154	50.38	0.41	6.374	4.043	12.74		-0.79	0.000
237.49	19.888	-15.865	50.46	0.41	6.281	3.986	-0.81		-0.79	0.000
237.76	19.835	-15.529	50.51	0.41	6.194	3.930	-26.97		-0.79	0.000
238.03	19.758	-15.168	50.59	0.41	6.118	3.883	-98.20		-0.79	0.000
238.31	19.684	-14.748	50.67	0.41	6.062	3.843	-113.17		-0.79	0.000
238.58	19.636	-14.303	50.71	0.41	6.032	3.809	-119.75		-0.79	0.000
238.86	19.565	-13.810	50.79	0.42	5.979	3.797	-122.02		-0.79	0.000
239.13	19.498	-13.293	50.85	0.42	5.934	3.769	-163.87		-0.79	0.000
239.40	19.431	-12.728	50.92	0.42	5.899	3.746	-203.73		-0.79	0.000
239.68	19.390	-12.127	50.96	0.42	5.864	3.728	-291.56		-0.79	0.000
239.95	19.331	-11.502	51.02	0.42	5.847	3.712	-326.72		-0.79	0.000
240.23	19.275	-10.829	51.08	0.42	5.825	3.703	-368.51		-0.79	0.000
240.50	19.224	-10.156	51.13	0.42	5.803	3.695	-359.47		-0.79	0.000
240.77	19.190	-9.435	51.16	0.42	5.793	3.691	-334.25		-0.79	0.000
241.05	19.145	-8.702	51.20	0.42	5.783	3.687	-314.91		-0.79	0.000
241.32	19.104	-7.933	51.25	0.42	5.771	3.683	-290.71		-0.79	0.000
241.60	19.067	-7.139	51.28	0.42	5.771	3.680	-273.77		-0.79	0.000
241.88	19.044	-6.334	51.31	0.42	5.762	3.680	-236.30		-0.79	0.000
242.15	19.016	-5.517	51.33	0.42	5.751	3.679	-219.65		-0.79	0.000
242.42	18.990	-4.663	51.36	0.42	5.751	3.680	-195.03		-0.79	0.000
242.70	18.981	-3.822	51.37	0.42	5.749	3.680	-204.84		-0.79	0.000
242.98	18.961	-2.969	51.39	0.42	5.741	3.680	-207.28		-0.79	0.000
243.24	18.951	-2.079	51.40	0.42	5.755	3.681	-186.22		-0.79	0.000
243.52	18.943	-1.202	51.41	0.42	5.746	3.683	-158.64		-0.79	0.000
243.78	18.940	-0.349	51.41	0.42	5.750	3.685	-93.57		-0.79	0.000
244.06	18.940	0.505	51.41	0.42	5.757	3.689	-78.00		-0.79	0.000
244.32	18.940	1.370	51.41	0.42	5.757	3.693	-71.46		-0.79	0.000
244.59	18.940	2.236	51.41	0.42	5.764	3.694	-67.24		-0.79	0.000
244.86	18.947	3.065	51.40	0.42	5.766	3.697	-46.04		-0.79	0.000
245.13	18.965	3.918	51.39	0.42	5.765	3.701	23.49		-0.79	0.000
245.39	18.979	4.736	51.37	0.42	5.769	3.704	70.50		-0.79	0.000
245.67	19.006	5.565	51.34	0.42	5.771	3.706	165.84		-0.79	0.000
245.94	19.036	6.358	51.31	0.42	5.775	3.710	197.50		-0.79	0.000
246.21	19.059	7.163	51.29	0.42	5.781	3.713	209.31		-0.79	0.000
246.48	19.098	7.933	51.25	0.42	5.778	3.715	200.05		-0.79	0.000
246.76	19.140	8.690	51.21	0.42	5.787	3.715	168.03		-0.79	0.000
247.02	19.185	9.423	51.16	0.42	5.786	3.717	163.33		-0.79	0.000
247.29	19.216	10.144	51.13	0.42	5.794	3.718	141.24		-0.79	0.000
247.56	19.271	10.817	51.08	0.42	5.794	3.720	126.27		-0.79	0.000
247.83	19.326	11.466	51.02	0.42	5.803	3.722	70.10		-0.79	0.000
248.10	19.365	12.091	50.99	0.42	5.809	3.725	43.95		-0.79	0.000
248.37	19.426	12.680	50.92	0.42	5.817	3.729	5.45		-0.79	0.000
248.64	19.493	13.233	50.86	0.42	5.839	3.735	-5.95		-0.79	0.000
248.91	19.535	13.750	50.81	0.42	5.852	3.740	-3.65		-0.80	0.000
249.17	19.607	14.243	50.74	0.41	5.864	3.746	0.27		-0.80	0.000
249.45	19.680	14.700	50.67	0.41	5.882	3.754	-9.75		-0.80	0.000
249.71	19.729	15.096	50.62	0.41	5.895	3.760	-16.17		-0.80	0.000
249.98	19.806	15.481	50.54	0.41	5.900	3.770	-13.53		-0.80	0.000
250.25	19.883	15.805	50.47	0.41	5.923	3.776	6.09		-0.80	0.000
250.52	19.936	16.094	50.41	0.41	5.937	3.785	63.21		-0.80	0.000
250.79	20.017	16.346	50.33	0.41	5.959	3.794	96.38		-0.80	0.000
251.07	20.100	16.563	50.25	0.41	6.002	3.799	148.69		-0.80	0.000
251.33	20.154	16.719	50.20	0.41	6.038	3.810	166.81		-0.80	0.000
251.60	20.240	16.851	50.11	0.41	6.093	3.828	177.60		-0.80	0.000
251.87	20.324	16.935	50.03	0.41	6.116	3.847	166.82		-0.80	0.000
252.14	20.380	16.971	49.97	0.41	6.169	3.870	155.48		-0.80	0.000
252.42	20.466	16.959	49.88	0.41	6.224	3.898	161.43		-0.80	0.000
252.68	20.549	16.911	49.80	0.41	6.291	3.928	169.83		-0.80	0.000
252.96	20.606	16.803	49.74	0.41	6.362	3.962	161.67		-0.80	0.000
253.23	20.690	16.671	49.66	0.41	6.438	3.983	129.21		-0.80	0.000
253.50	20.774	16.490	49.58	0.41	6.535	4.027	98.28		-0.80	0.000
253.77	20.854	16.262	49.50	0.40	6.645	4.077	24.09		-0.80	0.000
254.04	20.908	15.986	49.44	0.40	6.697	4.143	-17.59		-0.80	0.000
254.31	20.988	15.673	49.36	0.40	6.823	4.219	-117.63		-0.80	0.000
254.58	21.065	15.337	49.29	0.40	6.955	4.309	-160.13		-0.80	0.000
254.86	21.115	14.940	49.24	0.40	7.079	4.409	-217.98		-0.80	0.000
255.13	21.188	14.495	49.16	0.40	7.236	4.515	-233.57		-0.80	0.000
255.40	21.259	14.026	49.09	0.40	7.378	4.627	-272.46		-0.80	0.000
255.68	21.329	13.522	49.02	0.40	7.524	4.743	-301.53		-0.80	0.000
255.95	21.372	12.969	48.98	0.40	7.668	4.804	-349.28		-0.80	0.000
256.22	21.435	12.392	48.91	0.40	7.817	4.927	-365.42		-0.80	0.000
256.49	21.495	11.791	48.85	0.40	7.885	5.054	-340.24		-0.80	0.000
256.76	21.534	11.142	48.82	0.40	8.020	5.178	-316.00		-0.80	0.000
257.04	21.589	10.469	48.76	0.40	8.157	5.298	-237.36		-0.80	0.000
257.31	21.639	9.784	48.71	0.40	8.271	5.418	-189.09		-0.80	0.000
257.59	21.688	9.050	48.66	0.40	8.395	5.528	-102.97		-0.80	0.000
257.86	21.716	8.293	48.63	0.40	8.509	5.636	-86.20		-0.80	0.000
258.13	21.754	7.512	48.60	0.40	8.602	5.739	-80.59		-0.80	0.000
258.40	21.789	6.731	48.56	0.40	8.696	5.830	-78.40		-0.80	0.000
258.67	21.812	5.913	48.54	0.40	8.783	5.872	-45.20		-0.80	0.000
258.94	21.839	5.096	48.51	0.40	8.804	5.953	-16.50		-0.80	0.000
259.22	21.856	4.267	48.49	0.40	8.881	6.024	18.91		-0.80	0.000
259.48	21.870	3.425	48.48	0.40	8.922	6.089	17.89		-0.80	0.000
259.74	21.882	2.560	48.47	0.40	8.964	6.139	-1.31		-0.80	0.000
260.01	21.894	1.719	48.46	0.40	9.008	6.180	-11.07		-0.80	0.000
260.28	21.900	0.877	48.45	0.40	9.018	6.211	-17.28		-0.80	0.000
260.54	21.902	0.024	48.45	0.40	9.026	6.221	-7.67		-0.80	0.000
260.81	21.902	-0.817	48.45	0.40	9.029	6.237	46.03		-0.80	0.000
261.07	21.902	-1.659	48.45	0.40	9.018	6.245	78.04		-0.80	0.000
261.34	21.902	-2.500	48.45	0.40	9.023	6.245	143.51		-0.80	0.000
261.62	21.890	-3.341	48.46	0.40	9.028	6.242	175.23		-0.80	0.000
261.89	21.877	-4.171	48.47	0.40	9.026	6.237	216.88		-0.80	0.000
262.16	21.850	-5.012	48.50	0.40	8.998	6.231	231.45		-0.80	0.000
262.43	21.823	-5.829	48.53	0.40	8.994	6.225	261.21		-0.80	0.000
262.70	21.790	-6.659	48.56	0.40	8.958	6.218	272.68		-0.80	0.000
262.98	21.767	-7.440	48.58	0.40	8.922	6.191	273.48		-0.80	0.000
263.25	21.727	-8.209	48.62	0.40	8.907	6.152	255.05		-0.80	0.000
263.53	21.685	-8.966	48.66	0.40	8.891	6.106	213.23		-0.80	0.000
263.80	21.652	-9.712	48.70	0.40	8.883	6.080	201.40		-0.80	0.000
264.07	21.603	-10.409	48.75	0.40	8.855	6.060	178.07		-0.80	0.000
264.34	21.549	-11.082	48.80	0.40	8.802	6.039	157.55		-0.80	0.000
264.62	21.491	-11.719	48.86	0.40	8.717	6.000	116.88		-0.80	0.000
264.90	21.452	-12.344	48.90	0.40	8.625	5.934	109.50		-0.80	0.000
265.17	21.388	-12.945	48.96	0.40	8.520	5.848	113.51		-0.80	0.000
265.45	21.324	-13.486	49.03	0.40	8.480	5.748	117.44		-0.80	0.000
265.72	21.277	-14.002	49.07	0.40	8.371	5.695	120.30		-0.80	0.000
265.99	21.207	-14.483	49.14	0.40	8.250	5.585	125.11		-0.80	0.000
266.26	21.131	-14.916	49.22	0.40	8.134	5.475	139.45		-0.80	0.000
266.53	21.057	-15.312	49.29	0.40	8.016	5.360	139.78		-0.80	0.000
266.81	21.006	-15.661	49.34	0.40	7.901	5.248	130.31		-0.80	0.000
267.08	20.926	-15.974	49.42	0.40	7.787	5.137	131.35		-0.80	0.000
267.36	20.847	-16.250	49.50	0.40	7.679	5.028	141.61		-0.80	0.000
267.64	20.763	-16.478	49.59	0.41	7.565	4.929	140.79		-0.80	0.000
267.91	20.709	-16.671	49.64	0.41	7.457	4.828	118.49		-0.80	0.000
268.19	20.625	-16.815	49.73	0.41	7.376	4.737	106.21		-0.80	0.000
268.46	20.541	-16.911	49.81	0.41	7.201	4.630	87.00		-0.80	0.000
268.73	20.483	-16.959	49.87	0.41	7.031	4.572	87.02		-0.80	0.000
269.00	20.398	-16.959	49.95	0.41	6.894	4.455	111.47		-0.80	0.000
269.27	20.313	-16.923	50.04	0.41	6.763	4.343	124.24		-0.80	0.000
269.55	20.229	-16.839	50.12	0.41	6.642	4.243	150.10		-0.80	0.000
269.82	20.175	-16.719	50.18	0.41	6.506	4.154	165.80		-0.80	0.000
270.10	20.090	-16.538	50.26	0.41	6.396	4.075	200.94		-0.80	0.000
270.37	20.009	-16.322	50.34	0.41	6.296	4.003	216.47		-0.80	0.000
270.64	19.956	-16.058	50.39	0.41	6.246	3.941	239.19		-0.80	0.000
270.91	19.875	-15.757	50.48	0.41	6.160	3.888	244.64		-0.80	0.000
271.18	19.797	-15.421	50.55	0.41	6.079	3.842	218.55		-0.80	0.000
271.46	19.721	-15.036	50.63	0.41	6.011	3.822	184.65		-0.80	0.000
271.73	19.672	-14.615	50.68	0.41	5.950	3.787	104.45		-0.80	0.000
272.00	19.600	-14.135	50.75	0.41	5.903	3.756	48.58		-0.80	0.000
272.28	19.530	-13.642	50.82	0.42	5.856	3.733	38.65		-0.80	0.000
272.55	19.485	-13.113	50.86	0.42	5.827	3.712	37.38		-0.80	0.000
272.81	19.421	-12.536	50.93	0.42	5.796	3.696	39.31		-0.80	0.000
273.08	19.359	-11.935	50.99	0.42	5.776	3.683	41.91		-0.80	0.000
273.36	19.301	-11.322	51.05	0.42	5.760	3.671	43.94		-0.80	0.000
273.63	19.266	-10.661	51.08	0.42	5.739	3.666	44.69		-0.80	0.000
273.90	19.213	-9.952	51.14	0.42	5.724	3.663	38.98		-0.80	0.000
274.17	19.165	-9.255	51.19	0.42	5.721	3.657	40.82		-0.80	0.000
274.45	19.135	-8.498	51.21	0.42	5.696	3.652	52.28		-0.80	0.000
274.72	19.097	-7.740	51.25	0.42	5.692	3.650	85.25		-0.80	0.000
274.99	19.059	-6.959	51.29	0.42	5.688	3.649	101.70		-0.80	0.000
275.26	19.029	-6.154	51.32	0.42	5.681	3.648	120.70		-0.80	0.000
275.54	19.008	-5.337	51.34	0.42	5.682	3.646	124.29		-0.80	0.000
275.81	18.985	-4.507	51.36	0.42	5.676	3.645	100.08		-0.80	0.000
276.08	18.966	-3.642	51.38	0.42	5.678	3.649	84.26		-0.80	0.000
276.35	18.956	-2.788	51.39	0.42	5.672	3.650	62.13		-0.80	0.000
276.62	18.947	-1.935	51.40	0.42	5.690	3.650	55.21		-0.80	0.000
276.89	18.939	-1.070	51.41	0.42	5.677	3.651	64.43		-0.80	0.000
277.15	18.936	-0.204	51.41	0.42	5.689	3.656	73.40		-0.80	0.000
277.41	18.936	0.625	51.41	0.42	5.693	3.660	87.67		-0.80	0.000
277.68	18.936	1.478	51.41	0.42	5.693	3.664	109.24		-0.80	0.000
277.94	18.936	2.308	51.41	0.42	5.704	3.668	114.21		-0.80	0.000
278.21	18.944	3.161	51.41	0.42	5.702	3.670	106.89		-0.80	0.000
278.48	18.959	3.966	51.39	0.42	5.703	3.671	90.28		-0.80	0.000
278.75	18.979	4.808	51.37	0.42	5.704	3.673	51.00		-0.80	0.000
279.02	19.006	5.625	51.34	0.42	5.714	3.674	28.65		-0.80	0.000
279.29	19.036	6.430	51.31	0.42	5.717	3.675	-8.86		-0.80	0.000
279.57	19.059	7.212	51.29	0.42	5.720	3.677	-29.79		-0.80	0.000
279.84	19.098	7.993	51.25	0.42	5.726	3.679	-47.91		-0.80	0.000
280.10	19.139	8.750	51.21	0.42	5.726	3.682	-51.77		-0.80	0.000
280.38	19.170	9.483	51.18	0.42	5.724	3.683	-55.47		-0.80	0.000
280.65	19.220	10.180	51.13	0.42	5.737	3.684	-58.41		-0.80	0.000
280.92	19.272	10.877	51.08	0.42	5.743	3.687	-77.95		-0.80	0.000
281.19	19.329	11.526	51.02	0.42	5.744	3.689	-96.00		-0.80	0.000
281.47	19.368	12.151	50.98	0.42	5.757	3.693	-137.28		-0.80	0.000
281.74	19.430	12.740	50.92	0.42	5.768	3.697	-148.33		-0.80	0.000
282.01	19.497	13.305	50.85	0.42	5.783	3.701	-169.50		-0.80	0.000
282.29	19.539	13.822	50.81	0.42	5.798	3.708	-178.85		-0.80	0.000
282.56	19.609	14.315	50.74	0.41	5.807	3.716	-201.18		-0.80	0.000
282.83	19.684	14.760	50.67	0.41	5.829	3.724	-220.10		-0.80	0.000
283.11	19.759	15.168	50.59	0.41	5.834	3.729	-262.57		-0.80	0.000
283.38	19.809	15.541	50.54	0.41	5.854	3.731	-287.45		-0.80	0.000
283.66	19.889	15.877	50.46	0.41	5.878	3.741	-354.49		-0.80	0.000
283.93	19.970	16.166	50.38	0.41	5.879	3.749	-379.85		-0.80	0.000
284.20	20.022	16.406	50.33	0.41	5.905	3.757	-393.87		-0.80	0.000
284.47	20.106	16.611	50.24	0.41	5.940	3.762	-375.83		-0.80	0.000
284.75	20.190	16.767	50.16	0.41	5.977	3.775	-306.89		-0.80	0.000
285.02	20.274	16.875	50.08	0.41	6.029	3.796	-266.04		-0.80	0.000
285.29	20.330	16.947	50.02	0.41	6.075	3.815	-206.95		-0.80	0.000
285.57	20.415	16.971	49.94	0.41	6.132	3.837	-181.99		-0.80	0.000
285.84	20.499	16.947	49.85	0.41	6.188	3.861	-108.25		-0.80	0.000
286.12	20.557	16.875	49.79	0.41	6.262	3.873	-34.30		-0.80	0.000
286.38	20.640	16.767	49.71	0.41	6.296	3.904	7.29		-0.80	0.000
286.65	20.721	16.611	49.63	0.41	6.371	3.941	96.70		-0.80	0.000
286.92	20.806	16.406	49.54	0.41	6.468	3.983	132.17		-0.80	0.000
287.19	20.859	16.166	49.49	0.40	6.559	4.038	147.49		-0.80	0.000
287.46	20.939	15.889	49.41	0.40	6.682	4.105	123.05		-0.80	0.000
287.73	21.017	15.565	49.33	0.40	6.803	4.182	89.47		-0.80	0.000
288.00	21.070	15.204	49.28	0.40	6.932	4.274	18.26		-0.80	0.000
288.27	21.144	14.808	49.21	0.40	7.072	4.325	-9.42		-0.80	0.000
288.55	21.216	14.363	49.13	0.40	7.147	4.426	-56.32		-0.80	0.000
288.82	21.263	13.894	49.09	0.40	7.279	4.537	-89.64		-0.80	0.000
289.09	21.332	13.365	49.02	0.40	7.433	4.651	-147.39		-0.80	0.000
289.36	21.397	12.812	48.95	0.40	7.577	4.772	-175.05		-0.80	0.000
289.64	21.459	12.224	48.89	0.40	7.718	4.895	-209.56		-0.80	0.000
289.90	21.500	11.611	48.85	0.40	7.853	5.017	-207.38		-0.80	0.000
290.18	21.557	10.937	48.79	0.40	7.988	5.139	-158.29		-0.80	0.000
290.45	21.608	10.276	48.74	0.40	8.114	5.259	-111.10		-0.80	0.000
290.73	21.641	9.543	48.71	0.40	8.233	5.375	-87.18		-0.80	0.000
291.00	21.688	8.822	48.66	0.40	8.292	5.428	-20.34		-0.80	0.000
291.27	21.730	8.065	48.62	0.40	8.398	5.535	16.07		-0.80	0.000
291.54	21.754	7.284	48.60	0.40	8.495	5.634	76.90		-0.80	0.000
291.81	21.790	6.502	48.56	0.40	8.582	5.724	95.28		-0.80	0.000
292.08	21.818	5.685	48.53	0.40	8.658	5.810	113.10		-0.80	0.000
292.35	21.845	4.868	48.50	0.40	8.731	5.884	110.16		-0.80	0.000
292.62	21.859	4.038	48.49	0.40	8.786	5.949	81.78		-0.80	0.000
292.89	21.877	3.185	48.47	0.40	8.828	6.008	62.72		-0.80	0.000
293.15	21.888	2.344	48.46	0.40	8.856	6.031	47.96		-0.80	0.000
293.42	21.895	1.490	48.45	0.40	8.888	6.072	47.00		-0.80	0.000
293.68	21.898	0.637	48.45	0.40	8.893	6.106	57.66		-0.80	0.000
293.95	21.899	-0.204	48.45	0.40	8.910	6.128	65.88		-0.80	0.000
294.22	21.899	-1.046	48.45	0.40	8.906	6.138	62.86		-0.80	0.000
294.48	21.899	-1.899	48.45	0.40	8.903	6.140	17.10		-0.80	0.000
294.75	21.899	-2.740	48.45	0.40	8.907	6.138	-14.93		-0.80	0.000
295.02	21.885	-3.570	48.46	0.40	8.903	6.136	-85.80		-0.80	0.000
295.29	21.863	-4.399	48.49	0.40	8.891	6.133	-119.59		-0.80	0.000
295.57	21.840	-5.240	48.51	0.40	8.881	6.127	-158.49		-0.80	0.000
295.85	21.820	-6.058	48.53	0.40	8.854	6.118	-172.12		-0.80	0.000
296.12	21.788	-6.887	48.56	0.40	8.818	6.104	-186.76		-0.80	0.000
296.40	21.749	-7.680	48.60	0.40	8.773	6.073	-182.96		-0.80	0.000
296.67	21.708	-8.450	48.64	0.40	8.767	6.024	-193.77		-0.80	0.000
296.94	21.680	-9.195	48.67	0.40	8.752	5.983	-197.33		-0.80	0.000
297.22	21.630	-9.916	48.72	0.40	8.732	5.956	-194.37		-0.80	0.000
297.50	21.580	-10.613	48.77	0.40	8.719	5.937	-172.05		-0.80	0.000
297.78	21.544	-11.298	48.81	0.40	8.652	5.908	-97.58		-0.80	0.000
298.06	21.486	-11.935	48.86	0.40	8.582	5.858	-14.74		-0.80	0.000
298.33	21.426	-12.560	48.92	0.40	8.494	5.822	7.03		-0.80	0.000
298.60	21.361	-13.137	48.99	0.40	8.386	5.736	12.44		-0.80	0.000
298.87	21.317	-13.678	49.03	0.40	8.284	5.639	6.64		-0.80	0.000
299.15	21.245	-14.183	49.10	0.40	8.164	5.532	-41.08		-0.80	0.000
299.42	21.175	-14.639	49.18	0.40	8.051	5.421	-72.05		-0.80	0.000
299.69	21.100	-15.060	49.25	0.40	7.927	5.306	-117.74		-0.80	0.000
299.97	21.050	-15.445	49.30	0.40	7.822	5.193	-140.59		-0.80	0.000
300.26	20.971	-15.781	49.38	0.40	7.703	5.080	-194.04		-0.80	0.000
300.53	20.893	-16.094	49.46	0.40	7.643	4.972	-237.24		-0.80	0.000
300.80	20.809	-16.358	49.54	0.41	7.540	4.873	-342.80		-0.80	0.000
301.08	20.756	-16.563	49.59	0.41	7.421	4.772	-390.26		-0.80	0.000
301.35	20.672	-16.731	49.68	0.41	7.313	4.724	-451.99		-0.80	0.000
301.62	20.589	-16.851	49.76	0.41	7.175	4.634	-467.47		-0.80	0.000
301.90	20.504	-16.935	49.85	0.41	6.991	4.534	-501.27		-0.80	0.000
302.17	20.448	-16.971	49.90	0.41	6.831	4.419	-508.98		-0.80	0.000
302.44	20.363	-16.959	49.99	0.41	6.716	4.309	-533.16		-0.80	0.000
302.71	20.279	-16.899	50.07	0.41	6.592	4.199	-535.72		-0.80	0.000
302.99	20.221	-16.803	50.13	0.41	6.535	4.120	-537.81		-0.80	0.000
303.27	20.138	-16.659	50.21	0.41	6.400	4.036	-524.84		-0.80	0.000
303.55	20.056	-16.454	50.29	0.41	6.302	3.966	-476.33		-0.80	0.000
303.82	19.975	-16.214	50.38	0.41	6.190	3.901	-452.22		-0.80	0.000
304.09	19.921	-15.937	50.43	0.41	6.108	3.849	-392.43		-0.80	0.000
304.37	19.842	-15.613	50.51	0.41	6.037	3.803	-367.64		-0.80	0.000
304.64	19.765	-15.252	50.59	0.41	5.951	3.776	-296.78		-0.80	0.000
304.91	19.688	-14.856	50.66	0.41	5.916	3.743	-253.99		-0.80	0.000
305.19	19.640	-14.411	50.71	0.41	5.841	3.707	-158.43		-0.80	0.000
305.46	19.570	-13.930	50.78	0.42	5.815	3.686	-110.39		-0.80	0.000
305.73	19.501	-13.413	50.85	0.42	5.795	3.666	-35.17		-0.80	0.000
306.00	19.457	-12.861	50.89	0.42	5.745	3.646	2.41		-0.80	0.000
306.27	19.394	-12.272	50.96	0.42	5.739	3.635	60.23		-0.80	0.000
306.54	19.334	-11.671	51.02	0.42	5.702	3.619	86.65		-0.80	0.000
306.82	19.277	-11.010	51.07	0.42	5.675	3.613	126.82		-0.80	0.000
307.09	19.243	-10.349	51.11	0.42	5.668	3.611	128.63		-0.80	0.000
307.37	19.193	-9.639	51.16	0.42	5.676	3.604	104.48		-0.80	0.000
307.63	19.147	-8.906	51.20	0.42	5.634	3.601	33.31		-0.80	0.000
307.91	19.118	-8.137	51.23	0.42	5.666	3.594	-14.21		-0.80	0.000
308.18	19.080	-7.380	51.27	0.42	5.628	3.592	-116.72		-0.80	0.000
308.45	19.045	-6.587	51.30	0.42	5.631	3.592	-162.02		-0.80	0.000
308.73	19.015	-5.781	51.34	0.42	5.622	3.591	-231.42		-0.80	0.000
309.01	18.999	-4.940	51.35	0.42	5.622	3.591	-266.88		-0.80	0.000
309.28	18.979	-4.075	51.37	0.42	5.614	3.590	-328.41		-0.80	0.000
309.56	18.959	-3.209	51.39	0.42	5.620	3.591	-346.88		-0.80	0.000
309.83	18.945	-2.344	51.40	0.42	5.627	3.592	-337.54		-0.80	0.000
310.10	18.942	-1.478	51.41	0.42	5.608	3.595	-318.99		-0.80	0.000
310.37	18.939	-0.601	51.41	0.42	5.633	3.595	-252.59		-0.80	0.000
310.64	18.936	0.240	51.41	0.42	5.622	3.598	-212.93		-0.80	0.000
310.91	18.936	1.106	51.41	0.42	5.634	3.603	-108.03		-0.80	0.000
311.17	18.936	1.959	51.41	0.42	5.644	3.607	-48.61		-0.80	0.000
311.44	18.938	2.812	51.41	0.42	5.637	3.611	52.50		-0.80	0.000
311.70	18.951	3.654	51.40	0.42	5.652	3.614	95.57		-0.80	0.000
311.97	18.972	4.471	51.38	0.42	5.641	3.615	189.83		-0.80	0.000
312.24	18.997	5.288	51.35	0.42	5.652	3.616	225.52		-0.80	0.000
312.51	19.017	6.094	51.33	0.42	5.657	3.617	249.70		-0.80	0.000
312.79	19.051	6.887	51.30	0.42	5.658	3.617	242.97		-0.80	0.000
313.06	19.085	7.668	51.26	0.42	5.673	3.622	209.57		-0.80	0.000
313.33	19.113	8.450	51.24	0.42	5.664	3.623	180.02		-0.80	0.000
313.60	19.158	9.195	51.19	0.42	5.662	3.624	120.33		-0.80	0.000
313.87	19.207	9.904	51.14	0.42	5.655	3.624	80.77		-0.80	0.000
314.14	19.240	10.601	51.11	0.42	5.682	3.627	10.80		-0.80	0.000
314.41	19.295	11.250	51.05	0.42	5.678	3.628	-29.86		-0.80	0.000
314.69	19.352	11.887	51.00	0.42	5.688	3.630	-66.71		-0.80	0.000
314.96	19.413	12.488	50.94	0.42	5.713	3.634	-135.56		-0.80	0.000
315.23	19.456	13.077	50.89	0.42	5.705	3.639	-178.37		-0.80	0.000
315.51	19.522	13.606	50.83	0.42	5.729	3.646	-173.59		-0.80	0.000
315.78	19.593	14.111	50.76	0.41	5.741	3.651	-158.92		-0.80	0.000
316.05	19.639	14.579	50.71	0.41	5.758	3.657	-143.94		-0.80	0.000
316.32	19.713	15.000	50.64	0.41	5.773	3.663	-110.20		-0.80	0.000
316.60	19.790	15.397	50.56	0.41	5.778	3.672	-91.09		-0.80	0.000
316.87	19.867	15.733	50.48	0.41	5.810	3.680	-45.64		-0.80	0.000
317.14	19.921	16.046	50.43	0.41	5.807	3.683	-31.34		-0.80	0.000
317.41	20.000	16.310	50.35	0.41	5.828	3.690	-7.62		-0.80	0.000
317.68	20.085	16.526	50.26	0.41	5.854	3.699	-10.76		-0.80	0.000
317.95	20.139	16.695	50.21	0.41	5.896	3.705	-14.25		-0.80	0.000
318.23	20.221	16.827	50.13	0.41	5.942	3.724	-12.21		-0.80	0.000
318.50	20.307	16.923	50.04	0.41	5.982	3.739	2.46		-0.80	0.000
318.77	20.365	16.959	49.99	0.41	6.045	3.756	14.88		-0.80	0.000
319.03	20.448	16.959	49.90	0.41	6.089	3.780	27.19		-0.80	0.000
319.30	20.534	16.923	49.82	0.41	6.119	3.791	38.12		-0.80	0.000
319.56	20.588	16.827	49.76	0.41	6.192	3.817	41.11		-0.80	0.000
319.84	20.674	16.707	49.68	0.41	6.251	3.845	49.50		-0.80	0.000
320.11	20.754	16.526	49.60	0.41	6.344	3.883	58.16		-0.80	0.000
320.37	20.811	16.310	49.54	0.41	6.440	3.926	78.50		-0.80	0.000
320.64	20.891	16.058	49.46	0.40	6.542	3.981	89.79		-0.80	0.000
320.92	20.971	15.757	49.38	0.40	6.663	4.051	101.06		-0.80	0.000
321.19	21.048	15.409	49.30	0.40	6.715	4.131	96.47		-0.80	0.000
321.46	21.100	15.024	49.25	0.40	6.854	4.224	64.23		-0.80	0.000
321.73	21.174	14.603	49.18	0.40	6.981	4.272	37.22		-0.80	0.000
322.00	21.245	14.135	49.10	0.40	7.132	4.376	-3.97		-0.80	0.000
322.27	21.293	13.654	49.06	0.40	7.263	4.490	-14.22		-0.80	0.000
322.54	21.358	13.125	48.99	0.40	7.405	4.604	-33.52		-0.80	0.000
322.81	21.424	12.560	48.93	0.40	7.555	4.726	-56.67		-0.80	0.000
323.08	21.465	11.959	48.89	0.40	7.681	4.843	-117.26		-0.80	0.000
323.35	21.522	11.334	48.83	0.40	7.758	4.969	-140.47		-0.80	0.000
323.63	21.576	10.661	48.77	0.40	7.879	5.087	-155.85		-0.80	0.000
323.90	21.612	9.976	48.74	0.40	7.996	5.145	-145.75		-0.80	0.000
324.17	21.659	9.255	48.69	0.40	8.123	5.260	-110.67		-0.80	0.000
324.44	21.704	8.522	48.65	0.40	8.227	5.365	-106.41		-0.80	0.000
324.72	21.744	7.740	48.61	0.40	8.330	5.470	-128.67		-0.80	0.000
324.99	21.771	6.971	48.58	0.40	8.421	5.562	-150.44		-0.80	0.000
325.26	21.802	6.154	48.55	0.40	8.513	5.654	-189.00		-0.80	0.000
325.53	21.831	5.337	48.52	0.40	8.577	5.735	-202.95		-0.80	0.000
325.81	21.853	4.495	48.50	0.40	8.616	5.805	-216.40		-0.80	0.000
326.08	21.867	3.666	48.48	0.40	8.672	5.870	-221.69		-0.80	0.000
326.35	21.881	2.788	48.47	0.40	8.711	5.925	-228.41		-0.80	0.000
326.62	21.891	1.947	48.46	0.40	8.750	5.950	-234.16		-0.80	0.000
326.90	21.894	1.070	48.46	0.40	8.762	5.984	-259.66		-0.80	0.000
327.16	21.900	0.204	48.45	0.40	8.799	6.012	-272.82		-0.80	0.000
327.43	21.900	-0.661	48.45	0.40	8.789	6.033	-279.24		-0.80	0.000
327.70	21.900	-1.502	48.45	0.40	8.790	6.041	-280.94		-0.80	0.000
327.97	21.900	-2.368	48.45	0.40	8.794	6.043	-300.12		-0.80	0.000
328.24	21.891	-3.197	48.46	0.40	8.784	6.040	-322.04		-0.80	0.000
328.52	21.875	-4.050	48.48	0.40	8.788	6.038	-355.81		-0.80	0.000
328.79	21.852	-4.892	48.50	0.40	8.775	6.032	-364.70		-0.80	0.000
329.07	21.826	-5.733	48.52	0.40	8.748	6.026	-364.68		-0.80	0.000
329.34	21.795	-6.562	48.55	0.40	8.705	6.021	-362.11		-0.80	0.000
329.62	21.772	-7.356	48.58	0.40	8.668	5.993	-366.63		-0.80	0.000
329.89	21.732	-8.137	48.62	0.40	8.648	5.952	-372.80		-0.80	0.000
330.17	21.690	-8.894	48.66	0.40	8.623	5.902	-384.48		-0.80	0.000
330.44	21.641	-9.615	48.71	0.40	8.628	5.871	-377.18		-0.80	0.000
330.72	21.609	-10.337	48.74	0.40	8.604	5.850	-316.49		-0.80	0.000
330.99	21.556	-11.022	48.79	0.40	8.564	5.828	-214.40		-0.80	0.000
331.27	21.500	-11.671	48.85	0.40	8.490	5.791	-160.99		-0.80	0.000
331.54	21.439	-12.296	48.91	0.40	8.392	5.726	-68.90		-0.80	0.000
331.81	21.399	-12.885	48.95	0.40	8.309	5.643	-42.18		-0.80	0.000
332.09	21.332	-13.438	49.02	0.40	8.197	5.595	-34.58		-0.80	0.000
332.36	21.263	-13.954	49.09	0.40	8.086	5.490	-46.24		-0.80	0.000
332.63	21.216	-14.435	49.13	0.40	7.970	5.380	-87.87		-0.80	0.000
332.91	21.143	-14.868	49.21	0.40	7.852	5.267	-111.23		-0.80	0.000
333.18	21.067	-15.276	49.28	0.40	7.798	5.153	-149.05		-0.80	0.000
333.46	20.989	-15.637	49.36	0.40	7.684	5.042	-173.30		-0.80	0.000
333.74	20.938	-15.962	49.41	0.40	7.564	4.934	-242.34		-0.80	0.000
334.01	20.857	-16.238	49.49	0.40	7.455	4.829	-284.34		-0.80	0.000
334.28	20.776	-16.466	49.57	0.41	7.347	4.730	-363.63		-0.80	0.000
334.56	20.693	-16.659	49.66	0.41	7.248	4.636	-384.31		-0.80	0.000
334.84	20.635	-16.803	49.71	0.41	7.115	4.545	-390.18		-0.80	0.000
335.11	20.553	-16.899	49.80	0.41	6.961	4.453	-383.23		-0.80	0.000
335.39	20.466	-16.959	49.88	0.41	6.799	4.346	-345.62		-0.80	0.000
335.66	20.381	-16.971	49.97	0.41	6.670	4.292	-322.92		-0.80	0.000
335.94	20.326	-16.923	50.02	0.41	6.539	4.186	-274.79		-0.80	0.000
336.22	20.241	-16.839	50.11	0.41	6.421	4.089	-251.66		-0.80	0.000
336.49	20.158	-16.707	50.19	0.41	6.362	4.006	-197.73		-0.80	0.000
336.77	20.075	-16.538	50.28	0.41	6.245	3.934	-159.37		-0.80	0.000
337.04	20.021	-16.322	50.33	0.41	6.158	3.869	-70.85		-0.80	0.000
337.31	19.939	-16.058	50.41	0.41	6.057	3.815	-31.68		-0.80	0.000
337.58	19.859	-15.757	50.49	0.41	5.973	3.765	-31.66		-0.80	0.000
337.85	19.808	-15.409	50.54	0.41	5.909	3.724	-47.97		-0.80	0.000
338.14	19.731	-15.024	50.62	0.41	5.847	3.689	-108.67		-0.80	0.000
338.41	19.658	-14.603	50.69	0.41	5.804	3.658	-175.39		-0.80	0.000
338.68	19.585	-14.123	50.76	0.42	5.753	3.648	-194.83		-0.80	0.000
338.96	19.539	-13.630	50.81	0.42	5.736	3.627	-208.47		-0.80	0.000
339.23	19.472	-13.089	50.88	0.42	5.704	3.610	-206.17		-0.80	0.000
339.50	19.409	-12.500	50.94	0.42	5.682	3.595	-205.60		-0.80	0.000
339.78	19.349	-11.899	51.00	0.42	5.653	3.584	-209.81		-0.80	0.000
340.05	19.308	-11.262	51.04	0.42	5.635	3.573	-215.21		-0.80	0.000
340.33	19.254	-10.589	51.10	0.42	5.619	3.567	-198.01		-0.80	0.000
340.60	19.203	-9.892	51.15	0.42	5.599	3.560	-135.72		-0.80	0.000
340.87	19.174	-9.171	51.18	0.42	5.596	3.556	-95.87		-0.80	0.000
341.15	19.129	-8.413	51.22	0.42	5.580	3.553	0.21		-0.80	0.000
341.41	19.088	-7.656	51.26	0.42	5.578	3.553	51.63		-0.80	0.000
341.69	19.053	-6.863	51.30	0.42	5.578	3.548	132.31		-0.80	0.000
341.96	19.033	-6.070	51.32	0.42	5.570	3.548	164.41		-0.80	0.000
342.24	19.003	-5.240	51.35	0.42	5.564	3.548	200.44		-0.80	0.000
342.50	18.981	-4.399	51.37	0.42	5.568	3.549	207.86		-0.80	0.000
342.78	18.972	-3.546	51.38	0.42	5.561	3.552	219.88		-0.80	0.000
343.05	18.953	-2.716	51.40	0.42	5.564	3.553	224.78		-0.80	0.000
343.32	18.942	-1.839	51.41	0.42	5.568	3.553	243.20		-0.80	0.000
343.59	18.940	-0.974	51.41	0.42	5.569	3.553	262.87		-0.80	0.000
343.85	18.936	-0.096	51.41	0.42	5.570	3.553	268.22		-0.80	0.000
344.12	18.936	0.745	51.41	0.42	5.578	3.557	258.63		-0.80	0.000
344.39	18.936	1.587	51.41	0.42	5.579	3.561	223.29		-0.80	0.000
344.66	18.936	2.440	51.41	0.42	5.585	3.565	204.18		-0.80	0.000
344.92	18.944	3.269	51.41	0.42	5.592	3.569	164.35		-0.80	0.000
345.19	18.961	4.111	51.39	0.42	5.583	3.572	148.96		-0.80	0.000
345.46	18.985	4.928	51.36	0.42	5.590	3.573	134.40		-0.80	0.000
345.73	19.011	5.757	51.34	0.42	5.596	3.573	131.28		-0.80	0.000
346.00	19.031	6.550	51.32	0.42	5.599	3.574	125.89		-0.80	0.000
346.28	19.066	7.344	51.28	0.42	5.604	3.576	108.67		-0.80	0.000
346.54	19.106	8.113	51.24	0.42	5.603	3.579	60.42		-0.80	0.000
346.82	19.149	8.870	51.20	0.42	5.603	3.581	39.88		-0.80	0.000
347.08	19.179	9.591	51.17	0.42	5.604	3.581	29.50		-0.80	0.000
347.35	19.229	10.300	51.12	0.42	5.619	3.583	-9.61		-0.80	0.000
347.62	19.281	10.950	51.07	0.42	5.620	3.586	-35.96		-0.80	0.000
347.89	19.318	11.611	51.03	0.42	5.624	3.588	-89.86		-0.80	0.000
348.16	19.380	12.212	50.97	0.42	5.640	3.589	-119.97		-0.80	0.000
348.44	19.442	12.800	50.91	0.42	5.647	3.594	-173.03		-0.80	0.000
348.71	19.485	13.353	50.86	0.42	5.670	3.599	-194.26		-0.80	0.000
348.99	19.553	13.870	50.80	0.42	5.677	3.606	-217.96		-0.80	0.000
349.26	19.624	14.363	50.73	0.41	5.690	3.612	-208.74		-0.80	0.000
349.53	19.697	14.820	50.65	0.41	5.702	3.619	-216.86		-0.80	0.000
349.80	19.748	15.216	50.60	0.41	5.719	3.624	-251.75		-0.80	0.000
350.07	19.824	15.589	50.53	0.41	5.727	3.631	-270.68		-0.80	0.000
350.35	19.904	15.913	50.45	0.41	5.748	3.638	-259.74		-0.80	0.000
350.63	19.956	16.190	50.39	0.41	5.763	3.645	-236.74		-0.80	0.000
350.90	20.038	16.430	50.31	0.41	5.781	3.647	-176.57		-0.80	0.000
351.17	20.121	16.623	50.23	0.41	5.828	3.654	-156.47		-0.80	0.000
351.44	20.204	16.779	50.15	0.41	5.863	3.667	-138.73		-0.80	0.000
351.72	20.259	16.887	50.09	0.41	5.918	3.684	-145.49		-0.80	0.000
352.00	20.345	16.947	50.00	0.41	5.965	3.700	-172.39		-0.80	0.000
352.27	20.429	16.971	49.92	0.41	6.009	3.720	-172.00		-0.80	0.000
352.54	20.515	16.935	49.84	0.41	6.067	3.742	-117.96		-0.80	0.000
352.82	20.572	16.863	49.78	0.41	6.099	3.764	-73.20		-0.80	0.000
353.09	20.654	16.743	49.70	0.41	6.165	3.794	14.98		-0.80	0.000
353.36	20.736	16.587	49.61	0.41	6.242	3.828	39.77		-0.80	0.000
353.62	20.793	16.382	49.56	0.41	6.326	3.847	56.73		-0.80	0.000
353.89	20.872	16.142	49.48	0.40	6.423	3.890	64.79		-0.80	0.000
354.16	20.954	15.853	49.40	0.40	6.539	3.949	75.11		-0.80	0.000
354.44	21.007	15.529	49.34	0.40	6.657	4.018	79.27		-0.80	0.000
354.71	21.082	15.156	49.27	0.40	6.776	4.105	94.37		-0.80	0.000
354.98	21.158	14.736	49.19	0.40	6.844	4.198	98.87		-0.80	0.000
355.25	21.207	14.291	49.14	0.40	6.985	4.299	88.96		-0.80	0.000
355.52	21.276	13.798	49.07	0.40	7.116	4.408	69.43		-0.80	0.000
355.78	21.344	13.293	49.01	0.40	7.264	4.518	33.72		-0.80	0.000
356.05	21.388	12.728	48.96	0.40	7.394	4.576	16.41		-0.80	0.000
356.32	21.450	12.163	48.90	0.40	7.533	4.695	-1.89		-0.80	0.000
356.59	21.508	11.538	48.84	0.40	7.666	4.815	-4.20		-0.80	0.000
356.86	21.548	10.901	48.80	0.40	7.728	4.933	-15.45		-0.80	0.000
357.13	21.600	10.240	48.75	0.40	7.850	5.051	-17.40		-0.80	0.000
357.40	21.648	9.531	48.70	0.40	7.962	5.162	-46.76		-0.80	0.000
357.67	21.694	8.798	48.66	0.40	8.079	5.269	-66.08		-0.80	0.000
357.94	21.723	8.041	48.63	0.40	8.180	5.368	-107.82		-0.80	0.000
358.22	21.762	7.272	48.59	0.40	8.281	5.416	-112.96		-0.80	0.000
358.49	21.794	6.478	48.56	0.40	8.371	5.507	-122.84		-0.80	0.000
358.76	21.817	5.649	48.53	0.40	8.446	5.592	-123.75		-0.80	0.000
359.03	21.841	4.832	48.51	0.40	8.477	5.673	-126.23		-0.80	0.000
359.31	21.859	3.978	48.49	0.40	8.539	5.739	-131.44		-0.80	0.000
359.58	21.877	3.137	48.47	0.40	8.588	5.795	-145.42		-0.80	0.000
359.85	21.885	2.260	48.46	0.40	8.621	5.843	-165.06		-0.80	0.000
360.12	21.893	1.394	48.46	0.40	8.659	5.885	-205.23		-0.80	0.000
360.39	21.895	0.541	48.45	0.40	8.664	5.915	-225.99		-0.80	0.000
360.66	21.898	-0.325	48.45	0.40	8.667	5.922	-230.88		-0.80	0.000
360.93	21.898	-1.178	48.45	0.40	8.672	5.932	-227.25		-0.80	0.000
361.20	21.898	-2.031	48.45	0.40	8.669	5.935	-232.59		-0.80	0.000
361.47	21.898	-2.885	48.45	0.40	8.672	5.935	-241.49		-0.80	0.000
361.74	21.882	-3.726	48.47	0.40	8.671	5.933	-250.51		-0.80	0.000
362.02	21.857	-4.567	48.49	0.40	8.668	5.931	-241.75		-0.80	0.000
362.29	21.831	-5.397	48.52	0.40	8.659	5.928	-218.70		-0.80	0.000
362.57	21.813	-6.226	48.54	0.40	8.631	5.921	-206.49		-0.80	0.000
362.85	21.780	-7.031	48.57	0.40	8.598	5.904	-173.28		-0.80	0.000
363.12	21.741	-7.837	48.61	0.40	8.571	5.865	-144.18		-0.80	0.000
363.39	21.713	-8.606	48.64	0.40	8.555	5.844	-69.16		-0.80	0.000
363.67	21.670	-9.339	48.68	0.40	8.541	5.805	-33.38		-0.80	0.000
363.94	21.621	-10.060	48.73	0.40	8.536	5.778	51.91		-0.80	0.000
364.21	21.568	-10.769	48.78	0.40	8.508	5.761	97.66		-0.80	0.000
364.49	21.531	-11.418	48.82	0.40	8.431	5.739	186.17		-0.80	0.000
364.76	21.472	-12.055	48.88	0.40	8.357	5.690	217.10		-0.80	0.000
365.03	21.412	-12.656	48.94	0.40	8.274	5.615	253.18		-0.80	0.000
365.31	21.347	-13.209	49.00	0.40	8.157	5.527	265.86		-0.80	0.000
365.58	21.300	-13.750	49.05	0.40	8.056	5.426	315.39		-0.80	0.000
365.85	21.231	-14.243	49.12	0.40	7.949	5.319	344.81		-0.80	0.000
366.12	21.158	-14.700	49.19	0.40	7.829	5.265	369.79		-0.80	0.000
366.40	21.108	-15.120	49.24	0.40	7.768	5.150	370.25		-0.80	0.000
366.67	21.032	-15.481	49.32	0.40	7.653	5.039	367.17		-0.80	0.000
366.95	20.954	-15.817	49.40	0.40	7.540	4.934	365.92		-0.80	0.000
367.22	20.875	-16.118	49.48	0.40	7.437	4.830	364.54		-0.80	0.000
367.49	20.821	-16.370	49.53	0.40	7.331	4.732	364.22		-0.80	0.000
367.77	20.738	-16.587	49.61	0.41	7.225	4.637	363.92		-0.80	0.000
368.04	20.656	-16.743	49.69	0.41	7.077	4.547	363.85		-0.80	0.000
368.31	20.599	-16.863	49.75	0.41	6.927	4.453	347.43		-0.80	0.000
368.58	20.515	-16.935	49.84	0.41	6.762	4.340	323.40		-0.80	0.000
368.86	20.430	-16.971	49.92	0.41	6.626	4.228	279.10		-0.80	0.000
369.13	20.345	-16.947	50.00	0.41	6.569	4.175	268.18		-0.80	0.000
369.41	20.288	-16.887	50.06	0.41	6.443	4.077	247.60		-0.80	0.000
369.68	20.204	-16.791	50.15	0.41	6.322	3.995	221.15		-0.80	0.000
369.96	20.120	-16.635	50.23	0.41	6.210	3.919	153.62		-0.80	0.000
370.23	20.039	-16.442	50.31	0.41	6.109	3.853	120.02		-0.80	0.000
370.51	19.983	-16.190	50.37	0.41	6.010	3.793	76.75		-0.80	0.000
370.78	19.904	-15.913	50.45	0.41	5.931	3.743	63.44		-0.80	0.000
371.06	19.825	-15.589	50.53	0.41	5.853	3.700	30.60		-0.80	0.000
371.33	19.774	-15.228	50.58	0.41	5.795	3.664	15.00		-0.80	0.000
371.60	19.697	-14.820	50.65	0.41	5.769	3.633	19.82		-0.80	0.000
371.87	19.626	-14.375	50.72	0.41	5.725	3.621	22.21		-0.80	0.000
372.14	19.554	-13.894	50.80	0.42	5.683	3.601	16.04		-0.80	0.000
372.41	19.509	-13.389	50.84	0.42	5.657	3.583	3.61		-0.80	0.000
372.68	19.444	-12.837	50.91	0.42	5.623	3.567	7.05		-0.80	0.000
372.95	19.381	-12.248	50.97	0.42	5.596	3.556	24.66		-0.80	0.000
373.22	19.342	-11.635	51.01	0.42	5.587	3.547	32.88		-0.80	0.000
373.49	19.284	-10.998	51.07	0.42	5.566	3.539	38.29		-0.80	0.000
373.76	19.230	-10.313	51.12	0.42	5.558	3.534	45.40		-0.80	0.000
374.03	19.198	-9.627	51.15	0.42	5.544	3.529	52.03		-0.80	0.000
374.30	19.153	-8.882	51.20	0.42	5.538	3.528	55.56		-0.80	0.000
374.57	19.109	-8.161	51.24	0.42	5.520	3.526	48.84		-0.80	0.000
374.84	19.084	-7.380	51.27	0.42	5.522	3.524	29.69		-0.80	0.000
375.11	19.047	-6.599	51.30	0.42	5.510	3.523	16.98		-0.80	0.000
375.38	19.018	-5.781	51.33	0.42	5.510	3.521	-5.94		-0.80	0.000
375.65	18.993	-4.964	51.36	0.42	5.502	3.522	-23.09		-0.80	0.000
375.93	18.976	-4.135	51.37	0.42	5.507	3.523	-70.00		-0.80	0.000
376.19	18.961	-3.293	51.39	0.42	5.500	3.524	-89.99		-0.80	0.000
376.47	18.945	-2.428	51.40	0.42	5.501	3.527	-113.06		-0.80	0.000
376.74	18.942	-1.575	51.41	0.42	5.507	3.528	-116.04		-0.80	0.000
377.01	18.936	-0.697	51.41	0.42	5.509	3.531	-93.44		-0.80	0.000
377.28	18.934	0.156	51.42	0.42	5.515	3.534	-75.84		-0.80	0.000
377.55	18.934	1.034	51.42	0.42	5.515	3.537	-80.38		-0.80	0.000
377.81	18.934	1.875	51.42	0.42	5.523	3.541	-86.48		-0.80	0.000
378.09	18.936	2.728	51.41	0.42	5.520	3.545	-74.33		-0.80	0.000
378.36	18.952	3.570	51.40	0.42	5.525	3.547	-58.44		-0.80	0.000
378.63	18.968	4.411	51.38	0.42	5.530	3.548	-15.28		-0.80	0.000
378.89	18.993	5.252	51.36	0.42	5.530	3.549	-13.04		-0.80	0.000
379.17	19.021	6.058	51.33	0.42	5.540	3.551	-60.01		-0.80	0.000
379.44	19.043	6.851	51.31	0.42	5.539	3.552	-103.28		-0.80	0.000
379.72	19.081	7.656	51.27	0.42	5.542	3.556	-209.76		-0.80	0.000
379.98	19.121	8.413	51.23	0.42	5.542	3.557	-262.79		-0.80	0.000
380.26	19.151	9.159	51.20	0.42	5.543	3.559	-334.34		-0.80	0.000
380.53	19.198	9.880	51.15	0.42	5.545	3.561	-354.40		-0.80	0.000
380.81	19.249	10.577	51.10	0.42	5.559	3.562	-385.21		-0.80	0.000
381.08	19.304	11.250	51.05	0.42	5.559	3.564	-391.15		-0.80	0.000
381.36	19.342	11.887	51.01	0.42	5.571	3.566	-385.01		-0.80	0.000
381.62	19.403	12.488	50.95	0.42	5.580	3.569	-361.63		-0.80	0.000
381.90	19.467	13.077	50.88	0.42	5.593	3.573	-279.61		-0.80	0.000
382.17	19.511	13.594	50.84	0.42	5.612	3.578	-235.24		-0.80	0.000
382.45	19.581	14.111	50.77	0.42	5.624	3.584	-177.83		-0.80	0.000
382.72	19.653	14.579	50.70	0.41	5.626	3.591	-150.36		-0.80	0.000
383.00	19.727	15.012	50.62	0.41	5.644	3.596	-135.19		-0.80	0.000
383.27	19.777	15.397	50.57	0.41	5.659	3.601	-76.79		-0.80	0.000
383.55	19.856	15.745	50.49	0.41	5.678	3.607	-35.56		-0.80	0.000
383.81	19.936	16.058	50.41	0.41	5.690	3.613	32.93		-0.80	0.000
384.08	19.989	16.322	50.36	0.41	5.708	3.620	47.68		-0.80	0.000
384.35	20.071	16.526	50.28	0.41	5.751	3.623	27.52		-0.80	0.000
384.62	20.154	16.707	50.20	0.41	5.780	3.630	-4.92		-0.80	0.000
384.90	20.239	16.839	50.11	0.41	5.830	3.648	-78.60		-0.80	0.000
385.17	20.293	16.923	50.06	0.41	5.851	3.661	-100.97		-0.80	0.000
385.45	20.379	16.959	49.97	0.41	5.903	3.676	-95.57		-0.80	0.000
385.72	20.465	16.959	49.89	0.41	5.946	3.696	-74.13		-0.80	0.000
385.99	20.521	16.911	49.83	0.41	6.002	3.716	-28.10		-0.80	0.000
386.26	20.604	16.815	49.75	0.41	6.073	3.741	-13.52		-0.80	0.000
386.53	20.688	16.683	49.66	0.41	6.138	3.768	3.02		-0.80	0.000
386.80	20.745	16.502	49.60	0.41	6.217	3.784	8.85		-0.80	0.000
387.06	20.825	16.286	49.53	0.40	6.307	3.822	31.73		-0.80	0.000
387.33	20.906	16.022	49.44	0.40	6.360	3.867	43.92		-0.80	0.000
387.60	20.958	15.733	49.39	0.40	6.467	3.926	82.95		-0.80	0.000
387.88	21.038	15.385	49.31	0.40	6.580	3.999	106.34		-0.80	0.000
388.15	21.113	15.000	49.24	0.40	6.707	4.083	155.11		-0.80	0.000
388.42	21.186	14.567	49.16	0.40	6.838	4.178	169.36		-0.80	0.000
388.69	21.236	14.111	49.11	0.40	6.966	4.281	172.51		-0.80	0.000
388.96	21.303	13.606	49.05	0.40	7.096	4.334	168.45		-0.80	0.000
389.23	21.371	13.065	48.98	0.40	7.238	4.445	138.73		-0.80	0.000
389.51	21.412	12.500	48.94	0.40	7.303	4.559	108.37		-0.80	0.000
389.77	21.473	11.887	48.88	0.40	7.443	4.678	6.39		-0.80	0.000
390.04	21.531	11.262	48.82	0.40	7.568	4.794	-44.90		-0.81	0.000
390.31	21.568	10.601	48.78	0.40	7.692	4.912	-91.12		-0.81	0.000
390.59	21.618	9.916	48.73	0.40	7.804	5.026	-156.57		-0.81	0.000
390.86	21.667	9.207	48.68	0.40	7.925	5.135	-176.32		-0.81	0.000
391.13	21.711	8.450	48.64	0.40	8.022	5.239	-175.79		-0.81	0.000
391.40	21.739	7.680	48.61	0.40	8.125	5.335	-149.84		-0.81	0.000
391.68	21.773	6.899	48.58	0.40	8.215	5.384	-136.71		-0.81	0.000
391.95	21.806	6.094	48.54	0.40	8.256	5.474	-113.62		-0.81	0.000
392.23	21.823	5.276	48.53	0.40	8.331	5.554	-101.87		-0.81	0.000
392.50	21.848	4.435	48.50	0.40	8.393	5.628	-40.77		-0.81	0.000
392.77	21.865	3.582	48.49	0.40	8.446	5.689	11.37		-0.81	0.000
393.03	21.875	2.728	48.48	0.40	8.487	5.744	133.68		-0.81	0.000
393.30	21.890	1.875	48.46	0.40	8.521	5.789	193.65		-0.81	0.000
393.57	21.893	1.034	48.46	0.40	8.537	5.825	265.39		-0.81	0.000
393.83	21.895	0.168	48.45	0.40	8.541	5.840	275.36		-0.81	0.000
394.10	21.897	-0.673	48.45	0.40	8.552	5.857	272.71		-0.81	0.000
394.37	21.897	-1.514	48.45	0.40	8.552	5.865	214.72		-0.81	0.000
394.63	21.897	-2.368	48.45	0.40	8.553	5.868	165.82		-0.81	0.000
394.91	21.890	-3.233	48.46	0.40	8.554	5.867	48.96		-0.81	0.000
395.18	21.871	-4.050	48.48	0.40	8.543	5.866	-9.58		-0.81	0.000
395.46	21.849	-4.892	48.50	0.40	8.538	5.863	-106.59		-0.81	0.000
395.73	21.830	-5.709	48.52	0.40	8.521	5.856	-143.01		-0.81	0.000
396.01	21.798	-6.538	48.55	0.40	8.502	5.847	-207.67		-0.81	0.000
396.28	21.762	-7.332	48.59	0.40	8.468	5.835	-244.96		-0.81	0.000
396.56	21.723	-8.125	48.63	0.40	8.423	5.795	-315.51		-0.81	0.000
396.83	21.695	-8.882	48.65	0.40	8.414	5.749	-381.57		-0.81	0.000
397.11	21.649	-9.639	48.70	0.40	8.398	5.714	-392.96		-0.81	0.000
397.39	21.598	-10.337	48.75	0.40	8.383	5.694	-368.92		-0.81	0.000
397.66	21.563	-11.022	48.79	0.40	8.329	5.673	-348.00		-0.81	0.000
397.93	21.508	-11.683	48.84	0.40	8.260	5.642	-286.55		-0.81	0.000
398.21	21.447	-12.296	48.90	0.40	8.157	5.579	-257.46		-0.81	0.000
398.48	21.384	-12.885	48.97	0.40	8.064	5.497	-207.03		-0.81	0.000
398.75	21.340	-13.438	49.01	0.40	8.013	5.401	-181.53		-0.81	0.000
399.03	21.271	-13.954	49.08	0.40	7.899	5.294	-119.04		-0.81	0.000
399.30	21.202	-14.435	49.15	0.40	7.791	5.241	-79.75		-0.81	0.000
399.57	21.127	-14.880	49.22	0.40	7.672	5.130	14.63		-0.81	0.000
399.84	21.077	-15.276	49.27	0.40	7.560	5.019	59.45		-0.81	0.000
400.12	21.000	-15.637	49.35	0.40	7.448	4.907	124.99		-0.81	0.000
400.39	20.921	-15.950	49.43	0.40	7.336	4.803	152.46		-0.81	0.000
400.66	20.868	-16.226	49.48	0.40	7.240	4.702	199.46		-0.81	0.000
400.93	20.785	-16.466	49.56	0.41	7.132	4.608	191.97		-0.81	0.000
401.21	20.703	-16.647	49.65	0.41	7.039	4.516	145.77		-0.81	0.000
401.49	20.620	-16.791	49.73	0.41	6.967	4.427	116.23		-0.81	0.000
401.75	20.562	-16.899	49.79	0.41	6.811	4.332	50.36		-0.81	0.000
402.02	20.477	-16.959	49.87	0.41	6.667	4.279	11.25		-0.81	0.000
402.30	20.393	-16.971	49.96	0.41	6.532	4.175	-96.89		-0.81	0.000
402.57	20.338	-16.935	50.01	0.41	6.411	4.081	-156.63		-0.81	0.000
402.84	20.253	-16.851	50.10	0.41	6.294	3.995	-277.58		-0.81	0.000
403.12	20.168	-16.731	50.18	0.41	6.180	3.916	-325.76		-0.81	0.000
403.39	20.086	-16.563	50.26	0.41	6.076	3.849	-405.65		-0.81	0.000
403.67	20.031	-16.358	50.32	0.41	5.978	3.787	-419.66		-0.81	0.000
403.94	19.950	-16.106	50.40	0.41	5.934	3.737	-416.90		-0.81	0.000
404.21	19.870	-15.805	50.48	0.41	5.858	3.691	-416.71		-0.81	0.000
404.49	19.817	-15.469	50.53	0.41	5.789	3.653	-436.82		-0.81	0.000
404.77	19.740	-15.084	50.61	0.41	5.733	3.620	-448.28		-0.81	0.000
405.04	19.667	-14.651	50.68	0.41	5.685	3.606	-434.29		-0.81	0.000
405.31	19.595	-14.195	50.75	0.41	5.650	3.582	-401.99		-0.81	0.000
405.59	19.547	-13.690	50.80	0.42	5.611	3.566	-320.36		-0.81	0.000
405.86	19.480	-13.161	50.87	0.42	5.588	3.549	-279.22		-0.81	0.000
406.14	19.417	-12.584	50.93	0.42	5.556	3.537	-257.62		-0.81	0.000
406.41	19.356	-11.983	50.99	0.42	5.531	3.529	-266.39		-0.81	0.000
406.68	19.316	-11.334	51.03	0.42	5.531	3.518	-294.18		-0.81	0.000
406.96	19.261	-10.673	51.09	0.42	5.514	3.512	-293.21		-0.81	0.000
407.23	19.208	-9.988	51.14	0.42	5.492	3.505	-282.68		-0.81	0.000
407.51	19.162	-9.267	51.19	0.42	5.488	3.500	-270.54		-0.81	0.000
407.78	19.131	-8.510	51.22	0.42	5.466	3.497	-266.31		-0.81	0.000
408.05	19.093	-7.740	51.26	0.42	5.464	3.496	-270.18		-0.81	0.000
408.34	19.056	-6.959	51.29	0.42	5.459	3.494	-271.00		-0.81	0.000
408.61	19.025	-6.142	51.33	0.42	5.451	3.493	-253.58		-0.81	0.000
408.88	19.004	-5.300	51.35	0.42	5.448	3.492	-231.30		-0.81	0.000
409.16	18.981	-4.459	51.37	0.42	5.449	3.492	-157.96		-0.81	0.000
409.43	18.962	-3.606	51.39	0.42	5.446	3.492	-126.34		-0.81	0.000
409.71	18.953	-2.752	51.40	0.42	5.444	3.493	-89.92		-0.81	0.000
409.98	18.944	-1.875	51.41	0.42	5.446	3.496	-73.87		-0.81	0.000
410.25	18.936	-0.998	51.41	0.42	5.455	3.500	-37.98		-0.81	0.000
410.52	18.934	-0.120	51.42	0.42	5.457	3.503	-5.62		-0.81	0.000
410.78	18.934	0.721	51.42	0.42	5.459	3.504	49.26		-0.81	0.000
411.05	18.934	1.575	51.42	0.42	5.464	3.506	60.76		-0.81	0.000
411.31	18.934	2.404	51.42	0.42	5.462	3.509	35.38		-0.81	0.000
411.57	18.942	3.257	51.41	0.42	5.471	3.511	0.83		-0.81	0.000
411.84	18.958	4.063	51.39	0.42	5.470	3.513	-78.37		-0.81	0.000
412.12	18.977	4.880	51.37	0.42	5.476	3.514	-117.39		-0.81	0.000
412.40	19.004	5.709	51.35	0.42	5.478	3.514	-143.11		-0.81	0.000
412.67	19.036	6.526	51.31	0.42	5.489	3.517	-133.64		-0.81	0.000
412.94	19.071	7.332	51.28	0.42	5.483	3.520	-105.22		-0.81	0.000
413.21	19.097	8.101	51.25	0.42	5.491	3.522	-96.94		-0.81	0.000
413.48	19.142	8.870	51.21	0.42	5.489	3.523	-95.19		-0.81	0.000
413.76	19.188	9.591	51.16	0.42	5.490	3.526	-102.86		-0.81	0.000
414.03	19.218	10.300	51.13	0.42	5.507	3.527	-96.16		-0.81	0.000
414.30	19.274	10.986	51.08	0.42	5.505	3.531	-81.84		-0.81	0.000
414.58	19.327	11.635	51.02	0.42	5.522	3.534	-47.88		-0.81	0.000
414.85	19.388	12.248	50.96	0.42	5.531	3.539	-23.88		-0.81	0.000
415.12	19.431	12.837	50.92	0.42	5.540	3.546	18.58		-0.81	0.000
415.38	19.498	13.401	50.85	0.42	5.554	3.549	28.81		-0.81	0.000
415.66	19.565	13.906	50.79	0.42	5.568	3.554	16.75		-0.81	0.000
415.92	19.613	14.375	50.74	0.41	5.573	3.561	-7.16		-0.81	0.000
416.20	19.685	14.820	50.66	0.41	5.585	3.567	-67.05		-0.81	0.000
416.47	19.761	15.216	50.59	0.41	5.604	3.572	-95.61		-0.81	0.000
416.74	19.812	15.577	50.54	0.41	5.613	3.576	-113.68		-0.81	0.000
417.02	19.890	15.913	50.46	0.41	5.635	3.580	-109.76		-0.81	0.000
417.29	19.970	16.190	50.38	0.41	5.653	3.587	-81.10		-0.81	0.000
417.56	20.052	16.430	50.30	0.41	5.670	3.593	-78.61		-0.81	0.000
417.84	20.107	16.623	50.24	0.41	5.703	3.603	-85.87		-0.81	0.000
418.11	20.190	16.779	50.16	0.41	5.749	3.606	-98.63		-0.81	0.000
418.39	20.275	16.887	50.08	0.41	5.762	3.620	-130.46		-0.81	0.000
418.66	20.331	16.947	50.02	0.41	5.816	3.636	-138.00		-0.81	0.000
418.93	20.417	16.971	49.93	0.41	5.870	3.651	-148.72		-0.81	0.000
419.20	20.500	16.935	49.85	0.41	5.915	3.673	-155.44		-0.81	0.000
419.48	20.586	16.863	49.76	0.41	5.980	3.688	-191.18		-0.81	0.000
419.75	20.641	16.755	49.71	0.41	6.051	3.711	-219.86		-0.81	0.000
420.02	20.724	16.587	49.63	0.41	6.112	3.741	-259.92		-0.81	0.000
420.29	20.806	16.382	49.54	0.41	6.207	3.775	-262.14		-0.81	0.000
420.57	20.861	16.142	49.49	0.40	6.294	3.820	-221.46		-0.81	0.000
420.84	20.940	15.853	49.41	0.40	6.347	3.847	-196.33		-0.81	0.000
421.11	21.020	15.517	49.33	0.40	6.466	3.910	-132.86		-0.81	0.000
421.38	21.095	15.144	49.25	0.40	6.575	3.985	-104.98		-0.81	0.000
421.66	21.145	14.724	49.20	0.40	6.698	4.074	-37.80		-0.81	0.000
421.92	21.217	14.279	49.13	0.40	6.828	4.169	-4.74		-0.81	0.000
422.20	21.289	13.786	49.06	0.40	6.959	4.275	46.59		-0.81	0.000
422.46	21.334	13.269	49.02	0.40	7.092	4.382	58.73		-0.81	0.000
422.73	21.398	12.704	48.95	0.40	7.221	4.495	61.55		-0.81	0.000
423.01	21.459	12.127	48.89	0.40	7.289	4.614	43.76		-0.81	0.000
423.27	21.500	11.514	48.85	0.40	7.419	4.670	-20.39		-0.81	0.000
423.55	21.556	10.853	48.79	0.40	7.544	4.786	-60.41		-0.81	0.000
423.82	21.608	10.180	48.74	0.40	7.664	4.901	-146.58		-0.81	0.000
424.10	21.657	9.471	48.69	0.40	7.772	5.013	-191.63		-0.81	0.000
424.36	21.688	8.738	48.66	0.40	7.887	5.117	-279.05		-0.81	0.000
424.64	21.727	7.969	48.62	0.40	7.975	5.219	-322.22		-0.81	0.000
424.91	21.767	7.200	48.58	0.40	8.079	5.317	-375.33		-0.81	0.000
425.18	21.790	6.394	48.56	0.40	8.120	5.407	-384.07		-0.81	0.000
425.46	21.817	5.577	48.53	0.40	8.190	5.488	-366.40		-0.81	0.000
425.73	21.841	4.760	48.51	0.40	8.263	5.526	-346.91		-0.81	0.000
426.00	21.863	3.906	48.49	0.40	8.313	5.590	-301.43		-0.81	0.000
426.27	21.877	3.053	48.47	0.40	8.370	5.652	-279.35		-0.81	0.000
426.55	21.886	2.187	48.46	0.40	8.391	5.699	-264.80		-0.81	0.000
426.82	21.897	1.322	48.45	0.40	8.432	5.740	-265.88		-0.81	0.000
427.09	21.897	0.457	48.45	0.40	8.449	5.772	-266.78		-0.81	0.000
427.36	21.897	-0.409	48.45	0.40	8.445	5.796	-258.66		-0.81	0.000
427.63	21.897	-1.286	48.45	0.40	8.450	5.804	-224.65		-0.81	0.000
427.90	21.897	-2.127	48.45	0.40	8.442	5.805	-205.31		-0.81	0.000
428.17	21.895	-2.981	48.45	0.40	8.440	5.805	-175.84		-0.81	0.000
428.44	21.873	-3.822	48.48	0.40	8.446	5.802	-177.22		-0.81	0.000
428.71	21.852	-4.663	48.50	0.40	8.440	5.799	-214.96		-0.81	0.000
428.99	21.834	-5.493	48.52	0.40	8.420	5.795	-245.63		-0.81	0.000
429.27	21.806	-6.310	48.54	0.40	8.387	5.788	-306.96		-0.81	0.000
429.54	21.770	-7.127	48.58	0.40	8.352	5.770	-324.02		-0.81	0.000
429.82	21.732	-7.921	48.62	0.40	8.320	5.730	-333.99		-0.81	0.000
430.09	21.704	-8.690	48.65	0.40	8.323	5.684	-335.27		-0.81	0.000
430.36	21.658	-9.435	48.69	0.40	8.305	5.651	-350.11		-0.81	0.000
430.64	21.609	-10.144	48.74	0.40	8.288	5.631	-369.04		-0.81	0.000
430.92	21.575	-10.829	48.78	0.40	8.263	5.613	-415.99		-0.81	0.000
431.19	21.518	-11.490	48.83	0.40	8.184	5.601	-434.41		-0.81	0.000
431.47	21.459	-12.127	48.89	0.40	8.099	5.556	-444.46		-0.81	0.000
431.74	21.399	-12.728	48.95	0.40	8.010	5.484	-397.70		-0.81	0.000
432.02	21.354	-13.293	49.00	0.40	7.902	5.399	-366.45		-0.81	0.000
432.29	21.288	-13.822	49.06	0.40	7.796	5.297	-285.34		-0.81	0.000
432.57	21.215	-14.315	49.14	0.40	7.685	5.192	-240.51		-0.81	0.000
432.85	21.144	-14.772	49.21	0.40	7.577	5.081	-154.55		-0.81	0.000
433.12	21.094	-15.192	49.26	0.40	7.515	4.971	-125.42		-0.81	0.000
433.40	21.017	-15.565	49.33	0.40	7.410	4.863	-109.43		-0.81	0.000
433.67	20.938	-15.889	49.41	0.40	7.291	4.758	-110.36		-0.81	0.000
433.94	20.858	-16.178	49.49	0.40	7.193	4.659	-104.62		-0.81	0.000
434.21	20.804	-16.418	49.55	0.41	7.092	4.563	-97.06		-0.81	0.000
434.49	20.721	-16.623	49.63	0.41	6.996	4.515	-87.01		-0.81	0.000
434.77	20.636	-16.767	49.71	0.41	6.868	4.425	-94.01		-0.81	0.000
435.04	20.581	-16.887	49.77	0.41	6.713	4.341	-106.77		-0.81	0.000
435.31	20.497	-16.947	49.85	0.41	6.571	4.240	-126.17		-0.81	0.000
435.59	20.412	-16.971	49.94	0.41	6.435	4.138	-184.90		-0.81	0.000
435.87	20.327	-16.947	50.02	0.41	6.372	4.042	-218.25		-0.81	0.000
436.14	20.271	-16.875	50.08	0.41	6.258	3.958	-269.28		-0.81	0.000
436.41	20.186	-16.755	50.16	0.41	6.148	3.884	-279.63		-0.81	0.000
436.69	20.103	-16.587	50.25	0.41	6.038	3.820	-283.44		-0.81	0.000
436.96	20.021	-16.394	50.33	0.41	5.945	3.762	-289.38		-0.81	0.000
437.24	19.967	-16.130	50.38	0.41	5.855	3.712	-321.64		-0.81	0.000
437.51	19.888	-15.841	50.46	0.41	5.787	3.690	-345.31		-0.81	0.000
437.79	19.808	-15.505	50.54	0.41	5.720	3.648	-359.01		-0.81	0.000
438.06	19.731	-15.132	50.62	0.41	5.669	3.616	-364.61		-0.81	0.000
438.34	19.683	-14.712	50.67	0.41	5.628	3.587	-366.18		-0.81	0.000
438.61	19.611	-14.255	50.74	0.41	5.613	3.565	-357.90		-0.81	0.000
438.89	19.540	-13.762	50.81	0.42	5.574	3.551	-335.89		-0.81	0.000
439.16	19.474	-13.221	50.88	0.42	5.540	3.536	-262.22		-0.81	0.000
439.44	19.429	-12.656	50.92	0.42	5.516	3.521	-228.78		-0.81	0.000
439.71	19.367	-12.067	50.98	0.42	5.488	3.513	-177.04		-0.81	0.000
439.98	19.309	-11.418	51.04	0.42	5.479	3.505	-158.90		-0.81	0.000
440.26	19.271	-10.757	51.08	0.42	5.459	3.501	-138.71		-0.81	0.000
440.53	19.218	-10.072	51.13	0.42	5.445	3.498	-146.61		-0.81	0.000
440.81	19.170	-9.339	51.18	0.42	5.434	3.494	-182.87		-0.81	0.000
441.09	19.127	-8.606	51.22	0.42	5.427	3.491	-199.35		-0.81	0.000
441.36	19.099	-7.825	51.25	0.42	5.417	3.490	-215.65		-0.81	0.000
441.63	19.062	-7.031	51.29	0.42	5.419	3.489	-214.61		-0.81	0.000
441.91	19.029	-6.238	51.32	0.42	5.416	3.489	-223.29		-0.81	0.000
442.18	19.001	-5.409	51.35	0.42	5.401	3.489	-224.58		-0.81	0.000
442.45	18.985	-4.567	51.36	0.42	5.412	3.488	-211.67		-0.81	0.000
442.72	18.963	-3.726	51.39	0.42	5.407	3.490	-211.00		-0.81	0.000
443.00	18.952	-2.873	51.40	0.42	5.413	3.491	-214.94		-0.81	0.000
443.27	18.943	-2.019	51.41	0.42	5.410	3.491	-221.60		-0.81	0.000
443.54	18.938	-1.130	51.41	0.42	5.413	3.493	-191.34		-0.81	0.000
443.81	18.934	-0.276	51.42	0.42	5.417	3.495	-158.05		-0.81	0.000
444.08	18.934	0.577	51.42	0.42	5.420	3.497	-70.89		-0.81	0.000
444.35	18.934	1.442	51.42	0.42	5.429	3.502	-30.38		-0.81	0.000
444.61	18.934	2.308	51.42	0.42	5.430	3.505	18.74		-0.81	0.000
444.88	18.935	3.149	51.41	0.42	5.435	3.508	18.20		-0.81	0.000
445.15	18.952	3.978	51.40	0.42	5.433	3.510	-4.33		-0.81	0.000
445.42	18.977	4.796	51.37	0.42	5.438	3.510	-13.96		-0.81	0.000
445.69	19.006	5.637	51.34	0.42	5.446	3.511	3.68		-0.81	0.000
445.96	19.024	6.430	51.33	0.42	5.442	3.513	20.94		-0.81	0.000
446.23	19.058	7.224	51.29	0.42	5.444	3.516	46.70		-0.81	0.000
446.49	19.098	7.993	51.25	0.42	5.446	3.517	51.05		-0.81	0.000
446.76	19.126	8.750	51.22	0.42	5.456	3.518	10.55		-0.81	0.000
447.03	19.171	9.459	51.18	0.42	5.455	3.518	-17.86		-0.81	0.000
447.30	19.221	10.156	51.13	0.42	5.463	3.522	-87.73		-0.81	0.000
447.58	19.256	10.841	51.09	0.42	5.468	3.525	-105.42		-0.81	0.000
447.85	19.311	11.490	51.04	0.42	5.465	3.525	-113.62		-0.81	0.000
448.12	19.371	12.115	50.98	0.42	5.484	3.526	-119.80		-0.81	0.000
448.39	19.411	12.716	50.94	0.42	5.490	3.532	-155.92		-0.81	0.000
448.67	19.477	13.281	50.87	0.42	5.502	3.535	-165.16		-0.81	0.000
448.94	19.543	13.798	50.81	0.42	5.520	3.542	-160.18		-0.81	0.000
449.22	19.616	14.291	50.73	0.41	5.528	3.546	-143.72		-0.81	0.000
449.49	19.662	14.748	50.69	0.41	5.541	3.550	-89.08		-0.81	0.000
449.76	19.738	15.156	50.61	0.41	5.557	3.556	-50.91		-0.81	0.000
450.03	19.816	15.529	50.53	0.41	5.571	3.562	-25.22		-0.81	0.000
450.31	19.867	15.865	50.48	0.41	5.589	3.566	-23.33		-0.81	0.000
450.57	19.948	16.142	50.40	0.41	5.599	3.568	-37.36		-0.81	0.000
450.84	20.029	16.394	50.32	0.41	5.619	3.575	-45.52		-0.81	0.000
451.11	20.085	16.599	50.26	0.41	5.661	3.581	-70.22		-0.81	0.000
451.39	20.168	16.755	50.18	0.41	5.691	3.593	-84.64		-0.81	0.000
451.66	20.249	16.863	50.10	0.41	5.737	3.609	-117.88		-0.81	0.000
451.93	20.335	16.935	50.01	0.41	5.787	3.620	-142.03		-0.81	0.000
452.21	20.390	16.971	49.96	0.41	5.833	3.637	-204.04		-0.81	0.000
452.48	20.476	16.947	49.87	0.41	5.848	3.652	-247.38		-0.81	0.000
452.75	20.559	16.887	49.79	0.41	5.916	3.669	-314.59		-0.81	0.000
453.02	20.645	16.779	49.70	0.41	5.972	3.690	-321.43		-0.81	0.000
453.30	20.700	16.623	49.65	0.41	6.042	3.701	-290.06		-0.81	0.000
453.57	20.784	16.430	49.57	0.41	6.128	3.731	-262.65		-0.81	0.000
453.84	20.865	16.190	49.49	0.40	6.209	3.765	-192.82		-0.81	0.000
454.12	20.918	15.913	49.43	0.40	6.313	3.813	-147.45		-0.81	0.000
454.39	20.997	15.589	49.35	0.40	6.418	3.869	-48.75		-0.81	0.000
454.66	21.075	15.216	49.28	0.40	6.538	3.943	0.83		-0.81	0.000
454.92	21.124	14.820	49.23	0.40	6.597	4.026	63.97		-0.81	0.000
455.19	21.197	14.375	49.15	0.40	6.719	4.118	87.71		-0.81	0.000
455.47	21.266	13.906	49.08	0.40	6.854	4.169	145.58		-0.81	0.000
455.74	21.313	13.401	49.04	0.40	6.980	4.274	166.36		-0.81	0.000
456.01	21.379	12.849	48.97	0.40	7.115	4.380	196.08		-0.81	0.000
456.28	21.440	12.260	48.91	0.40	7.240	4.496	193.19		-0.81	0.000
456.55	21.500	11.647	48.85	0.40	7.370	4.607	164.30		-0.81	0.000
456.82	21.539	10.998	48.81	0.40	7.499	4.724	132.80		-0.81	0.000
457.08	21.593	10.337	48.76	0.40	7.552	4.837	62.94		-0.81	0.000
457.35	21.643	9.639	48.71	0.40	7.671	4.951	28.72		-0.81	0.000
457.62	21.672	8.918	48.68	0.40	7.776	5.057	-39.62		-0.81	0.000
457.90	21.717	8.173	48.63	0.40	7.882	5.109	-52.79		-0.81	0.000
458.17	21.754	7.404	48.60	0.40	7.973	5.206	-67.18		-0.81	0.000
458.44	21.777	6.611	48.57	0.40	8.058	5.297	-69.85		-0.81	0.000
458.72	21.807	5.793	48.54	0.40	8.128	5.383	-71.14		-0.81	0.000
458.99	21.834	4.976	48.52	0.40	8.194	5.459	-73.14		-0.81	0.000
459.26	21.856	4.123	48.49	0.40	8.230	5.529	-59.98		-0.81	0.000
459.53	21.865	3.269	48.49	0.40	8.276	5.588	-53.65		-0.81	0.000
459.80	21.881	2.416	48.47	0.40	8.314	5.638	-23.21		-0.81	0.000
460.06	21.885	1.563	48.46	0.40	8.346	5.662	4.50		-0.81	0.000
460.33	21.893	0.721	48.46	0.40	8.368	5.697	44.36		-0.81	0.000
460.59	21.893	-0.108	48.46	0.40	8.365	5.720	58.81		-0.81	0.000
460.85	21.893	-0.962	48.46	0.40	8.375	5.735	50.17		-0.81	0.000
461.11	21.893	-1.803	48.46	0.40	8.367	5.741	43.23		-0.81	0.000
461.38	21.893	-2.632	48.46	0.40	8.369	5.742	35.19		-0.81	0.000
461.65	21.881	-3.462	48.47	0.40	8.372	5.739	34.39		-0.81	0.000
461.92	21.862	-4.291	48.49	0.40	8.366	5.738	45.91		-0.81	0.000
462.20	21.836	-5.120	48.51	0.40	8.355	5.732	64.41		-0.81	0.000
462.46	21.818	-5.925	48.53	0.40	8.339	5.729	74.63		-0.81	0.000
462.74	21.785	-6.755	48.56	0.40	8.307	5.719	76.86		-0.81	0.000
463.01	21.750	-7.536	48.60	0.40	8.284	5.693	69.05		-0.81	0.000
463.28	21.709	-8.317	48.64	0.40	8.266	5.654	31.36		-0.81	0.000
463.55	21.681	-9.062	48.67	0.40	8.249	5.614	6.08		-0.81	0.000
463.82	21.634	-9.772	48.72	0.40	8.248	5.591	-15.42		-0.81	0.000
464.10	21.581	-10.469	48.77	0.40	8.211	5.570	-11.17		-0.81	0.000
464.37	21.547	-11.142	48.80	0.40	8.154	5.563	1.86		-0.81	0.000
464.63	21.490	-11.791	48.86	0.40	8.078	5.534	-2.85		-0.81	0.000
464.91	21.429	-12.404	48.92	0.40	7.994	5.475	-58.56		-0.81	0.000
465.18	21.386	-12.957	48.96	0.40	7.943	5.395	-105.20		-0.81	0.000
465.46	21.321	-13.522	49.03	0.40	7.833	5.298	-200.15		-0.81	0.000
465.74	21.252	-14.014	49.10	0.40	7.726	5.196	-230.67		-0.81	0.000
466.02	21.181	-14.495	49.17	0.40	7.608	5.089	-254.10		-0.81	0.000
466.29	21.131	-14.940	49.22	0.40	7.504	4.983	-212.08		-0.81	0.000
466.56	21.057	-15.349	49.29	0.40	7.387	4.872	-184.97		-0.81	0.000
466.83	20.977	-15.697	49.37	0.40	7.279	4.766	-149.60		-0.81	0.000
467.12	20.899	-16.010	49.45	0.40	7.179	4.664	-143.95		-0.81	0.000
467.39	20.845	-16.274	49.50	0.40	7.077	4.568	-163.12		-0.81	0.000
467.67	20.765	-16.514	49.59	0.41	6.982	4.523	-162.59		-0.81	0.000
467.94	20.680	-16.695	49.67	0.41	6.861	4.433	-132.98		-0.81	0.000
468.22	20.598	-16.827	49.75	0.41	6.774	4.348	-102.89		-0.81	0.000
468.49	20.541	-16.911	49.81	0.41	6.635	4.253	-37.51		-0.81	0.000
468.76	20.457	-16.959	49.89	0.41	6.494	4.153	-26.77		-0.81	0.000
469.03	20.372	-16.959	49.98	0.41	6.366	4.055	-30.99		-0.81	0.000
469.31	20.286	-16.923	50.06	0.41	6.252	3.966	-43.78		-0.81	0.000
469.58	20.230	-16.827	50.12	0.41	6.135	3.891	-41.50		-0.81	0.000
469.86	20.145	-16.695	50.20	0.41	6.026	3.821	-36.99		-0.81	0.000
470.13	20.065	-16.514	50.29	0.41	5.925	3.763	-11.93		-0.81	0.000
470.40	20.008	-16.298	50.34	0.41	5.833	3.737	-1.10		-0.81	0.000
470.67	19.927	-16.034	50.42	0.41	5.799	3.688	-9.14		-0.81	0.000
470.94	19.849	-15.721	50.50	0.41	5.731	3.645	-23.35		-0.81	0.000
471.22	19.772	-15.373	50.58	0.41	5.666	3.609	-91.24		-0.81	0.000
471.49	19.720	-14.988	50.63	0.41	5.618	3.579	-136.09		-0.81	0.000
471.77	19.647	-14.555	50.70	0.41	5.566	3.553	-210.53		-0.81	0.000
472.04	19.576	-14.087	50.77	0.42	5.535	3.533	-233.99		-0.81	0.000
472.32	19.506	-13.570	50.84	0.42	5.500	3.518	-261.30		-0.81	0.000
472.59	19.461	-13.029	50.89	0.42	5.477	3.502	-274.64		-0.81	0.000
472.87	19.398	-12.440	50.95	0.42	5.448	3.492	-307.62		-0.81	0.000
473.14	19.338	-11.827	51.01	0.42	5.436	3.483	-318.68		-0.81	0.000
473.41	19.299	-11.178	51.05	0.42	5.428	3.479	-318.45		-0.81	0.000
473.69	19.245	-10.517	51.10	0.42	5.411	3.474	-297.25		-0.81	0.000
473.96	19.194	-9.820	51.16	0.42	5.396	3.470	-240.62		-0.81	0.000
474.24	19.148	-9.087	51.20	0.42	5.388	3.465	-190.94		-0.81	0.000
474.51	19.118	-8.329	51.23	0.42	5.376	3.462	-174.41		-0.81	0.000
474.79	19.080	-7.548	51.27	0.42	5.370	3.460	-160.69		-0.81	0.000
475.07	19.043	-6.767	51.31	0.42	5.365	3.459	-160.30		-0.81	0.000
475.34	19.012	-5.950	51.34	0.42	5.364	3.458	-161.15		-0.81	0.000
475.61	18.994	-5.096	51.36	0.42	5.356	3.459	-154.57		-0.81	0.000
475.88	18.972	-4.255	51.38	0.42	5.362	3.459	-133.56		-0.81	0.000
476.16	18.954	-3.413	51.40	0.42	5.350	3.459	-119.68		-0.81	0.000
476.43	18.947	-2.560	51.40	0.42	5.356	3.459	-95.22		-0.81	0.000
476.70	18.936	-1.683	51.41	0.42	5.371	3.459	-78.88		-0.81	0.000
476.98	18.931	-0.829	51.42	0.42	5.367	3.461	-27.54		-0.81	0.000
477.24	18.929	0.048	51.42	0.42	5.370	3.464	18.31		-0.81	0.000
477.50	18.929	0.913	51.42	0.42	5.377	3.466	116.41		-0.81	0.000
477.77	18.929	1.743	51.42	0.42	5.379	3.469	154.65		-0.81	0.000
478.03	18.929	2.596	51.42	0.42	5.384	3.472	172.56		-0.81	0.000
478.30	18.943	3.425	51.41	0.42	5.391	3.475	154.73		-0.81	0.000
478.57	18.961	4.231	51.39	0.42	5.390	3.476	136.99		-0.81	0.000
478.84	18.976	5.072	51.37	0.42	5.389	3.478	80.78		-0.81	0.000
479.11	19.006	5.901	51.34	0.42	5.399	3.480	46.76		-0.81	0.000
479.37	19.036	6.683	51.31	0.42	5.402	3.482	-27.84		-0.81	0.000
479.64	19.062	7.476	51.29	0.42	5.402	3.484	-70.48		-0.81	0.000
479.92	19.101	8.233	51.25	0.42	5.407	3.484	-142.16		-0.81	0.000
480.19	19.144	8.966	51.21	0.42	5.409	3.485	-171.06		-0.81	0.000
480.47	19.192	9.712	51.16	0.42	5.409	3.488	-232.80		-0.81	0.000
480.74	19.225	10.397	51.13	0.42	5.414	3.491	-254.86		-0.81	0.000
481.02	19.277	11.082	51.07	0.42	5.419	3.492	-284.13		-0.81	0.000
481.30	19.335	11.743	51.01	0.42	5.431	3.495	-306.68		-0.81	0.000
481.57	19.398	12.356	50.95	0.42	5.437	3.496	-307.37		-0.81	0.000
481.84	19.439	12.957	50.91	0.42	5.447	3.500	-288.75		-0.81	0.000
482.11	19.503	13.498	50.85	0.42	5.462	3.503	-273.29		-0.81	0.000
482.38	19.572	14.002	50.78	0.42	5.474	3.507	-234.98		-0.81	0.000
482.67	19.620	14.483	50.73	0.41	5.485	3.514	-218.83		-0.81	0.000
482.94	19.694	14.916	50.66	0.41	5.497	3.518	-188.38		-0.81	0.000
483.22	19.768	15.325	50.58	0.41	5.508	3.523	-160.39		-0.81	0.000
483.49	19.847	15.673	50.50	0.41	5.519	3.526	-112.87		-0.81	0.000
483.76	19.899	15.998	50.45	0.41	5.543	3.532	-90.73		-0.81	0.000
484.03	19.981	16.262	50.37	0.41	5.556	3.537	-52.40		-0.81	0.000
484.30	20.063	16.490	50.29	0.41	5.594	3.541	-30.30		-0.81	0.000
484.57	20.116	16.671	50.23	0.41	5.622	3.549	-3.68		-0.81	0.000
484.83	20.200	16.815	50.15	0.41	5.672	3.561	4.45		-0.81	0.000
485.11	20.285	16.911	50.06	0.41	5.691	3.576	28.84		-0.81	0.000
485.38	20.343	16.959	50.01	0.41	5.730	3.589	41.70		-0.81	0.000
485.64	20.426	16.971	49.92	0.41	5.779	3.607	37.30		-0.81	0.000
485.91	20.512	16.935	49.84	0.41	5.832	3.611	21.44		-0.81	0.000
486.17	20.567	16.851	49.78	0.41	5.888	3.631	1.23		-0.81	0.000
486.44	20.652	16.731	49.70	0.41	5.959	3.650	-18.33		-0.81	0.000
486.70	20.734	16.575	49.62	0.41	6.029	3.672	-9.19		-0.81	0.000
486.97	20.789	16.370	49.56	0.41	6.074	3.704	29.88		-0.81	0.000
487.24	20.870	16.130	49.48	0.40	6.156	3.743	49.45		-0.81	0.000
487.51	20.949	15.829	49.40	0.40	6.256	3.792	78.76		-0.81	0.000
487.78	21.003	15.505	49.35	0.40	6.367	3.853	75.68		-0.81	0.000
488.05	21.080	15.132	49.27	0.40	6.478	3.890	33.91		-0.81	0.000
488.31	21.153	14.724	49.20	0.40	6.602	3.974	0.18		-0.81	0.000
488.58	21.202	14.267	49.15	0.40	6.667	4.065	-46.42		-0.81	0.000
488.85	21.272	13.810	49.08	0.40	6.795	4.167	-54.45		-0.81	0.000
489.12	21.339	13.281	49.01	0.40	6.917	4.271	-41.34		-0.81	0.000
489.39	21.382	12.728	48.97	0.40	7.053	4.379	-30.47		-0.81	0.000
489.66	21.445	12.151	48.90	0.40	7.182	4.494	-9.29		-0.81	0.000
489.93	21.503	11.538	48.85	0.40	7.304	4.549	1.59		-0.81	0.000
490.20	21.543	10.889	48.81	0.40	7.426	4.664	7.45		-0.81	0.000
490.47	21.595	10.204	48.75	0.40	7.537	4.778	-4.80		-0.81	0.000
490.74	21.644	9.519	48.71	0.40	7.592	4.892	-5.43		-0.81	0.000
491.00	21.675	8.786	48.68	0.40	7.698	4.995	4.04		-0.81	0.000
491.27	21.716	8.041	48.63	0.40	7.806	5.094	23.29		-0.81	0.000
491.54	21.754	7.272	48.60	0.40	7.897	5.188	15.61		-0.81	0.000
491.82	21.788	6.478	48.56	0.40	7.981	5.276	-36.37		-0.81	0.000
492.09	21.809	5.673	48.54	0.40	8.055	5.317	-68.11		-0.81	0.000
492.36	21.834	4.844	48.52	0.40	8.118	5.394	-109.27		-0.81	0.000
492.64	21.856	4.014	48.49	0.40	8.186	5.463	-119.97		-0.81	0.000
492.91	21.865	3.149	48.49	0.40	8.202	5.526	-130.21		-0.81	0.000
493.18	21.880	2.284	48.47	0.40	8.235	5.581	-117.27		-0.81	0.000
493.45	21.884	1.418	48.47	0.40	8.270	5.619	-93.25		-0.81	0.000
493.72	21.890	0.565	48.46	0.40	8.282	5.649	-94.39		-0.81	0.000
493.99	21.890	-0.288	48.46	0.40	8.282	5.669	-113.59		-0.81	0.000
494.26	21.890	-1.166	48.46	0.40	8.299	5.678	-122.35		-0.81	0.000
494.52	21.890	-2.019	48.46	0.40	8.295	5.681	-121.21		-0.81	0.000
494.79	21.890	-2.873	48.46	0.40	8.288	5.684	-117.31		-0.81	0.000
495.06	21.875	-3.702	48.48	0.40	8.291	5.684	-125.48		-0.81	0.000
495.34	21.849	-4.543	48.50	0.40	8.286	5.680	-143.65		-0.81	0.000
495.61	21.834	-5.373	48.52	0.40	8.277	5.678	-184.06		-0.81	0.000
495.90	21.803	-6.202	48.55	0.40	8.260	5.672	-206.19		-0.81	0.000
496.17	21.768	-7.007	48.58	0.40	8.219	5.658	-242.76		-0.81	0.000
496.45	21.732	-7.825	48.62	0.40	8.187	5.621	-252.13		-0.81	0.000
496.72	21.704	-8.582	48.65	0.40	8.173	5.578	-267.37		-0.81	0.000
496.99	21.658	-9.339	48.69	0.40	8.165	5.548	-268.52		-0.81	0.000
497.28	21.611	-10.060	48.74	0.40	8.145	5.528	-266.20		-0.81	0.000
497.54	21.559	-10.745	48.79	0.40	8.110	5.520	-264.24		-0.81	0.000
497.82	21.521	-11.430	48.83	0.40	8.061	5.500	-269.77		-0.81	0.000
498.09	21.463	-12.043	48.89	0.40	7.980	5.453	-276.14		-0.81	0.000
498.37	21.400	-12.656	48.95	0.40	7.894	5.383	-299.08		-0.81	0.000
498.65	21.357	-13.221	48.99	0.40	7.789	5.299	-306.54		-0.81	0.000
498.92	21.290	-13.762	49.06	0.40	7.681	5.197	-315.69		-0.81	0.000
499.20	21.218	-14.255	49.13	0.40	7.573	5.093	-315.68		-0.81	0.000
499.48	21.148	-14.712	49.20	0.40	7.462	4.984	-285.50		-0.81	0.000
499.75	21.098	-15.132	49.25	0.40	7.349	4.877	-254.13		-0.81	0.000
500.03	21.021	-15.517	49.33	0.40	7.239	4.771	-244.07		-0.81	0.000
500.31	20.944	-15.853	49.41	0.40	7.138	4.669	-204.61		-0.81	0.000
500.58	20.863	-16.142	49.49	0.40	7.038	4.571	-180.93		-0.81	0.000
500.86	20.809	-16.394	49.54	0.41	6.991	4.475	-129.45		-0.81	0.000
501.13	20.727	-16.599	49.62	0.41	6.898	4.432	-96.52		-0.81	0.000
501.41	20.644	-16.755	49.71	0.41	6.783	4.344	-61.41		-0.81	0.000
501.68	20.558	-16.875	49.79	0.41	6.627	4.263	-56.45		-0.81	0.000
501.95	20.502	-16.947	49.85	0.41	6.492	4.167	-59.84		-0.81	0.000
502.22	20.417	-16.971	49.93	0.41	6.357	4.067	-66.34		-0.81	0.000
502.50	20.333	-16.947	50.02	0.41	6.241	3.976	-58.15		-0.81	0.000
502.77	20.248	-16.887	50.10	0.41	6.128	3.894	-61.77		-0.81	0.000
503.04	20.192	-16.767	50.16	0.41	6.015	3.830	-75.82		-0.81	0.000
503.32	20.109	-16.611	50.24	0.41	5.918	3.768	-96.58		-0.81	0.000
503.60	20.026	-16.418	50.32	0.41	5.861	3.716	-158.12		-0.81	0.000
503.87	19.972	-16.178	50.38	0.41	5.775	3.667	-191.04		-0.81	0.000
504.14	19.892	-15.877	50.46	0.41	5.707	3.647	-268.86		-0.81	0.000
504.42	19.815	-15.553	50.54	0.41	5.647	3.606	-305.23		-0.81	0.000
504.70	19.738	-15.180	50.61	0.41	5.594	3.573	-339.50		-0.81	0.000
504.97	19.685	-14.760	50.66	0.41	5.551	3.547	-347.78		-0.81	0.000
505.24	19.615	-14.303	50.74	0.41	5.515	3.524	-347.98		-0.81	0.000
505.52	19.544	-13.822	50.81	0.42	5.476	3.507	-349.86		-0.81	0.000
505.80	19.477	-13.293	50.87	0.42	5.455	3.491	-324.12		-0.81	0.000
506.07	19.433	-12.740	50.92	0.42	5.431	3.479	-296.81		-0.81	0.000
506.34	19.371	-12.127	50.98	0.42	5.419	3.471	-208.78		-0.81	0.000
506.61	19.313	-11.502	51.04	0.42	5.406	3.463	-151.70		-0.81	0.000
506.88	19.256	-10.853	51.09	0.42	5.389	3.459	-37.97		-0.81	0.000
507.15	19.221	-10.168	51.13	0.42	5.367	3.457	23.75		-0.81	0.000
507.43	19.171	-9.459	51.18	0.42	5.364	3.452	132.64		-0.81	0.000
507.70	19.126	-8.726	51.22	0.42	5.351	3.448	175.26		-0.81	0.000
507.98	19.098	-7.957	51.25	0.42	5.343	3.446	232.26		-0.81	0.000
508.25	19.062	-7.188	51.29	0.42	5.342	3.443	269.99		-0.81	0.000
508.52	19.027	-6.382	51.32	0.42	5.332	3.442	290.58		-0.81	0.000
508.79	18.999	-5.565	51.35	0.42	5.335	3.442	315.61		-0.81	0.000
509.06	18.981	-4.736	51.37	0.42	5.332	3.442	308.72		-0.81	0.000
509.33	18.962	-3.894	51.39	0.42	5.334	3.443	276.38		-0.81	0.000
509.61	18.945	-3.041	51.40	0.42	5.326	3.443	261.21		-0.81	0.000
509.88	18.936	-2.187	51.41	0.42	5.337	3.446	243.11		-0.81	0.000
510.15	18.930	-1.322	51.42	0.42	5.337	3.447	238.67		-0.81	0.000
510.42	18.926	-0.457	51.42	0.42	5.334	3.448	233.25		-0.81	0.000
510.68	18.926	0.397	51.42	0.42	5.343	3.449	226.65		-0.81	0.000
510.94	18.926	1.262	51.42	0.42	5.352	3.454	215.49		-0.81	0.000
511.21	18.926	2.103	51.42	0.42	5.349	3.456	161.68		-0.81	0.000
511.47	18.926	2.933	51.42	0.42	5.356	3.458	121.79		-0.81	0.000
511.74	18.947	3.774	51.40	0.42	5.360	3.460	39.13		-0.81	0.000
512.01	18.968	4.579	51.38	0.42	5.349	3.461	0.69		-0.81	0.000
512.28	18.986	5.397	51.36	0.42	5.382	3.462	-68.55		-0.81	0.000
512.55	19.016	6.190	51.33	0.42	5.348	3.466	-107.22		-0.81	0.000
512.82	19.049	6.995	51.30	0.42	5.365	3.469	-171.49		-0.81	0.000
513.09	19.072	7.788	51.28	0.42	5.392	3.470	-193.87		-0.81	0.000
513.37	19.115	8.534	51.24	0.42	5.354	3.474	-228.10		-0.81	0.000
513.64	19.159	9.279	51.19	0.42	5.390	3.470	-230.89		-0.81	0.000
513.92	19.190	10.000	51.16	0.42	5.368	3.472	-206.46		-0.81	0.000
514.18	19.242	10.697	51.11	0.42	5.410	3.475	-177.84		-0.81	0.000
514.46	19.298	11.370	51.05	0.42	5.377	3.477	-110.63		-0.81	0.000
514.73	19.358	11.983	50.99	0.42	5.416	3.483	-79.08		-0.81	0.000
515.00	19.398	12.596	50.95	0.42	5.428	3.483	-9.59		-0.81	0.000
515.27	19.462	13.161	50.89	0.42	5.402	3.487	29.18		-0.81	0.000
515.54	19.530	13.690	50.82	0.42	5.454	3.490	101.55		-0.81	0.000
515.81	19.575	14.183	50.78	0.42	5.433	3.495	126.83		-0.81	0.000
516.08	19.649	14.627	50.70	0.41	5.473	3.499	146.07		-0.81	0.000
516.35	19.721	15.048	50.63	0.41	5.467	3.502	144.84		-0.81	0.000
516.63	19.772	15.433	50.58	0.41	5.484	3.504	103.62		-0.81	0.000
516.89	19.850	15.769	50.50	0.41	5.511	3.511	75.48		-0.81	0.000
517.17	19.930	16.070	50.42	0.41	5.497	3.518	31.58		-0.81	0.000
517.43	20.011	16.322	50.34	0.41	5.538	3.523	28.95		-0.81	0.000
517.70	20.066	16.550	50.28	0.41	5.569	3.527	55.21		-0.81	0.000
517.97	20.149	16.707	50.20	0.41	5.574	3.532	73.42		-0.81	0.000
518.24	20.233	16.839	50.12	0.41	5.646	3.553	96.95		-0.81	0.000
518.51	20.288	16.923	50.06	0.41	5.680	3.564	102.64		-0.81	0.000
518.79	20.374	16.959	49.98	0.41	5.756	3.573	94.04		-0.81	0.000
519.06	20.459	16.959	49.89	0.41	5.756	3.589	85.98		-0.81	0.000
519.33	20.516	16.911	49.83	0.41	5.796	3.599	58.31		-0.81	0.000
519.60	20.598	16.815	49.75	0.41	5.876	3.625	46.13		-0.81	0.000
519.87	20.684	16.683	49.67	0.41	5.899	3.635	19.31		-0.81	0.000
520.13	20.739	16.502	49.61	0.41	6.025	3.668	-5.35		-0.81	0.000
520.41	20.822	16.286	49.53	0.40	6.061	3.688	-82.05		-0.81	0.000
520.68	20.902	16.022	49.45	0.40	6.187	3.739	-134.54		-0.81	0.000
520.95	20.954	15.709	49.40	0.40	6.267	3.766	-251.97		-0.81	0.000
521.22	21.031	15.361	49.32	0.40	6.310	3.815	-301.32		-0.81	0.000
521.50	21.107	14.976	49.24	0.40	6.467	3.902	-368.68		-0.81	0.000
521.77	21.180	14.543	49.17	0.40	6.551	3.975	-396.90		-0.81	0.000
522.04	21.227	14.075	49.12	0.40	6.715	4.074	-426.66		-0.81	0.000
522.31	21.297	13.570	49.05	0.40	6.801	4.173	-419.75		-0.81	0.000
522.59	21.365	13.029	48.99	0.40	6.958	4.278	-368.82		-0.81	0.000
522.86	21.407	12.452	48.94	0.40	7.076	4.393	-335.79		-0.81	0.000
523.14	21.467	11.839	48.88	0.40	7.190	4.499	-274.03		-0.81	0.000
523.40	21.526	11.214	48.82	0.40	7.335	4.620	-252.76		-0.81	0.000
523.68	21.580	10.529	48.77	0.40	7.375	4.671	-190.37		-0.81	0.000
523.95	21.615	9.844	48.74	0.40	7.504	4.784	-154.70		-0.81	0.000
524.23	21.661	9.111	48.69	0.40	7.603	4.894	-85.37		-0.81	0.000
524.49	21.704	8.365	48.65	0.40	7.702	4.991	-52.38		-0.81	0.000
524.77	21.731	7.584	48.62	0.40	7.813	5.098	7.56		-0.81	0.000
525.03	21.767	6.815	48.58	0.40	7.875	5.182	5.78		-0.81	0.000
525.30	21.797	6.010	48.55	0.40	7.982	5.274	-47.51		-0.81	0.000
525.57	21.826	5.216	48.52	0.40	8.022	5.344	-92.09		-0.81	0.000
525.85	21.841	4.375	48.51	0.40	8.109	5.418	-179.63		-0.81	0.000
526.13	21.857	3.534	48.49	0.40	8.134	5.452	-210.48		-0.81	0.000
526.39	21.875	2.668	48.48	0.40	8.149	5.500	-234.71		-0.81	0.000
526.66	21.879	1.791	48.47	0.40	8.209	5.552	-242.79		-0.81	0.000
526.93	21.886	0.938	48.46	0.40	8.209	5.584	-243.88		-0.81	0.000
527.19	21.888	0.084	48.46	0.40	8.249	5.610	-249.61		-0.81	0.000
527.46	21.888	-0.769	48.46	0.40	8.226	5.629	-284.75		-0.81	0.000
527.73	21.888	-1.611	48.46	0.40	8.239	5.637	-294.75		-0.81	0.000
528.00	21.888	-2.464	48.46	0.40	8.247	5.639	-259.52		-0.81	0.000
528.27	21.882	-3.317	48.47	0.40	8.214	5.640	-219.01		-0.81	0.000
528.55	21.859	-4.159	48.49	0.40	8.239	5.632	-115.55		-0.81	0.000
528.82	21.838	-5.000	48.51	0.40	8.212	5.629	-69.92		-0.81	0.000
