Name           :	1mgmlAuDDT_O16	
User           :	Isaac	
Date           :	8/6/2014	

Probe1         :	Wilhelmy	
Perimeter      : 	39.240	

Probe2         :	Wilhelmy	
Perimeter      : 	39.240	

Trough         :	Extra Small	
Width          :	50.0	
Area           :	7035.0	
Symmetric comp :	True	

Subphase       :	Water	
Surface tension:	72.80	
pH             :	7.00	
Temperature    :	19.5	

Addition       :		
Concentration  :		
Unit           :	Unknown         	

Substance1     :	Au NP	
MW             :	197.0	
Concentration  :	1.000	
Unit           :	mg/ml           	
Volume         :	400.00	

Substance2     :		
MW             : 		
Concentration  : 		
Unit           :	Unknown         	
Volume         : 		

Substrate      :		
Height         : 		
Shape          : 	Rectangle       	
Width          :		
Thickness      :		


t[s]	Bpos	Bspd	A[cm²]	Mma[Å²]	P1[mN/m]	P2[mN/m]	T[°C]	SP[V]	pH	AD[V]
42.88	38.838	10.697	31.51	0.26	17.847	14.267	-172.27		-0.90	0.000
43.15	38.891	10.685	31.46	0.26	17.937	14.261	-185.70		-0.90	0.000
43.43	38.945	10.649	31.41	0.26	17.982	14.258	-212.80		-0.90	0.000
43.70	38.979	10.577	31.37	0.26	18.025	14.293	-219.41		-0.90	0.000
43.98	39.033	10.481	31.32	0.26	18.089	14.336	-202.36		-0.90	0.000
44.25	39.084	10.349	31.27	0.26	18.113	14.388	-186.59		-0.90	0.000
44.53	39.136	10.192	31.21	0.26	18.124	14.439	-130.17		-0.90	0.000
44.81	39.169	10.024	31.18	0.25	18.166	14.476	-107.83		-0.90	0.000
45.08	39.219	9.808	31.13	0.25	18.209	14.511	-64.77		-0.90	0.000
45.35	39.266	9.579	31.08	0.25	18.237	14.553	-38.79		-0.90	0.000
45.63	39.315	9.315	31.03	0.25	18.270	14.586	-6.88		-0.90	0.000
45.89	39.346	9.038	31.00	0.25	18.303	14.601	18.13		-0.90	0.000
46.17	39.389	8.726	30.96	0.25	18.319	14.634	66.12		-0.90	0.000
46.44	39.432	8.401	30.92	0.25	18.345	14.664	90.78		-0.90	0.000
46.71	39.461	8.053	30.89	0.25	18.382	14.687	140.66		-0.90	0.000
46.99	39.498	7.680	30.85	0.25	18.387	14.712	165.92		-0.90	0.000
47.26	39.536	7.284	30.81	0.25	18.400	14.734	171.84		-0.90	0.000
47.53	39.571	6.875	30.78	0.25	18.427	14.745	153.53		-0.90	0.000
47.80	39.593	6.442	30.76	0.25	18.435	14.765	126.29		-0.90	0.000
48.07	39.623	5.998	30.73	0.25	18.450	14.778	109.00		-0.90	0.000
48.35	39.654	5.541	30.70	0.25	18.478	14.782	77.49		-0.90	0.000
48.63	39.670	5.060	30.68	0.25	18.475	14.797	11.70		-0.90	0.000
48.90	39.695	4.555	30.66	0.25	18.488	14.809	-31.36		-0.90	0.000
49.17	39.715	4.050	30.63	0.25	18.470	14.814	-119.26		-0.90	0.000
49.45	39.733	3.534	30.62	0.25	18.492	14.815	-160.32		-0.90	0.000
49.72	39.742	3.017	30.61	0.25	18.490	14.814	-254.13		-0.90	0.000
49.99	39.757	2.476	30.59	0.25	18.470	14.811	-295.53		-0.90	0.000
50.26	39.766	1.947	30.58	0.25	18.456	14.801	-318.82		-0.90	0.000
50.54	39.774	1.394	30.58	0.25	18.430	14.790	-322.46		-0.90	0.000
50.81	39.775	0.853	30.57	0.25	18.404	14.769	-331.85		-0.90	0.000
51.08	39.778	0.300	30.57	0.25	18.387	14.760	-340.78		-0.90	0.000
51.35	39.779	-0.228	30.57	0.25	18.359	14.730	-341.52		-0.90	0.000
51.62	39.779	-0.781	30.57	0.25	18.324	14.699	-327.71		-0.90	0.000
51.89	39.779	-1.322	30.57	0.25	18.310	14.669	-288.50		-0.90	0.000
52.16	39.779	-1.863	30.57	0.25	18.281	14.636	-267.35		-0.90	0.000
52.43	39.778	-2.392	30.57	0.25	18.253	14.606	-231.96		-0.90	0.000
52.70	39.761	-2.933	30.59	0.25	18.219	14.575	-206.99		-0.90	0.000
52.98	39.747	-3.438	30.60	0.25	18.186	14.545	-151.99		-0.90	0.000
53.26	39.733	-3.954	30.62	0.25	18.147	14.516	-134.77		-0.90	0.000
53.53	39.714	-4.471	30.64	0.25	18.101	14.486	-93.27		-0.90	0.000
53.81	39.688	-4.976	30.66	0.25	18.068	14.471	-71.48		-0.90	0.000
54.08	39.663	-5.457	30.69	0.25	18.044	14.438	-22.13		-0.90	0.000
54.35	39.643	-5.925	30.71	0.25	18.034	14.410	4.69		-0.90	0.000
54.63	39.613	-6.382	30.74	0.25	18.012	14.386	40.59		-0.90	0.000
54.90	39.578	-6.815	30.77	0.25	17.993	14.361	39.33		-0.90	0.000
55.18	39.542	-7.224	30.81	0.25	17.954	14.338	21.33		-0.90	0.000
55.45	39.518	-7.620	30.83	0.25	17.898	14.309	13.95		-0.90	0.000
55.72	39.479	-8.005	30.87	0.25	17.830	14.259	15.87		-0.90	0.000
56.00	39.438	-8.353	30.91	0.25	17.744	14.186	27.00		-0.90	0.000
56.27	39.409	-8.690	30.94	0.25	17.659	14.093	53.22		-0.90	0.000
56.53	39.366	-9.002	30.98	0.25	17.551	14.042	59.30		-0.90	0.000
56.81	39.320	-9.279	31.03	0.25	17.500	13.925	64.03		-0.90	0.000
57.08	39.272	-9.543	31.08	0.25	17.386	13.800	59.69		-0.90	0.000
57.35	39.241	-9.772	31.11	0.25	17.244	13.665	70.15		-0.90	0.000
57.63	39.189	-9.988	31.16	0.25	17.115	13.520	82.77		-0.90	0.000
57.91	39.141	-10.168	31.21	0.26	16.983	13.369	142.20		-0.90	0.000
58.18	39.089	-10.325	31.26	0.26	16.830	13.211	164.78		-0.90	0.000
58.46	39.055	-10.457	31.30	0.26	16.679	13.048	183.03		-0.90	0.000
58.74	39.002	-10.565	31.35	0.26	16.527	12.886	178.48		-0.90	0.000
59.02	38.948	-10.637	31.40	0.26	16.381	12.719	149.53		-0.90	0.000
59.29	38.896	-10.685	31.45	0.26	16.225	12.551	137.00		-0.90	0.000
59.56	38.861	-10.697	31.49	0.26	16.074	12.384	126.47		-0.90	0.000
59.83	38.806	-10.685	31.54	0.26	16.001	12.300	125.03		-0.90	0.000
60.11	38.754	-10.637	31.60	0.26	15.855	12.131	91.71		-0.90	0.000
60.38	38.719	-10.577	31.63	0.26	15.710	11.971	16.70		-0.90	0.000
60.66	38.666	-10.469	31.68	0.26	15.550	11.810	-19.48		-0.90	0.000
60.93	38.613	-10.349	31.74	0.26	15.402	11.649	-61.88		-0.90	0.000
61.21	38.561	-10.192	31.79	0.26	15.255	11.483	-58.82		-0.90	0.000
61.48	38.527	-10.012	31.82	0.26	15.104	11.320	-29.89		-0.90	0.000
61.76	38.479	-9.808	31.87	0.26	14.939	11.162	-9.00		-0.90	0.000
62.03	38.431	-9.567	31.92	0.26	14.763	10.999	30.27		-0.90	0.000
62.30	38.383	-9.303	31.97	0.26	14.594	10.824	44.76		-0.90	0.000
62.58	38.354	-9.014	32.00	0.26	14.502	10.645	22.12		-0.90	0.000
62.85	38.309	-8.714	32.04	0.26	14.336	10.561	4.53		-0.90	0.000
63.12	38.266	-8.389	32.08	0.26	14.166	10.386	-16.38		-0.90	0.000
63.40	38.238	-8.029	32.11	0.26	14.009	10.217	-9.52		-0.90	0.000
63.67	38.200	-7.656	32.15	0.26	13.862	10.057	-4.44		-0.90	0.000
63.94	38.164	-7.260	32.19	0.26	13.724	9.907	-8.89		-0.90	0.000
64.22	38.128	-6.839	32.22	0.26	13.592	9.774	-30.71		-0.90	0.000
64.50	38.105	-6.418	32.25	0.26	13.489	9.650	-38.77		-0.90	0.000
64.77	38.073	-5.962	32.28	0.26	13.392	9.537	-48.49		-0.90	0.000
65.04	38.046	-5.493	32.30	0.26	13.345	9.434	-52.23		-0.90	0.000
65.32	38.020	-5.012	32.33	0.26	13.258	9.347	-73.35		-0.90	0.000
65.59	38.005	-4.519	32.35	0.26	13.172	9.265	-60.59		-0.90	0.000
65.87	37.986	-4.002	32.36	0.26	13.116	9.226	-12.49		-0.90	0.000
66.14	37.966	-3.486	32.38	0.26	13.053	9.161	17.97		-0.90	0.000
66.42	37.956	-2.945	32.39	0.26	13.006	9.101	68.42		-0.90	0.000
66.69	37.945	-2.416	32.41	0.26	12.951	9.052	81.88		-0.90	0.000
66.96	37.934	-1.875	32.42	0.27	12.923	9.008	95.30		-0.90	0.000
67.23	37.927	-1.334	32.42	0.27	12.907	8.971	91.28		-0.90	0.000
67.50	37.924	-0.781	32.43	0.27	12.893	8.940	65.25		-0.90	0.000
67.78	37.922	-0.252	32.43	0.27	12.880	8.923	45.49		-0.90	0.000
68.04	37.920	0.288	32.43	0.27	12.875	8.910	9.35		-0.90	0.000
68.30	37.920	0.841	32.43	0.27	12.868	8.906	3.12		-0.90	0.000
68.57	37.920	1.370	32.43	0.27	12.870	8.900	20.73		-0.90	0.000
68.84	37.920	1.899	32.43	0.27	12.865	8.898	36.91		-0.90	0.000
69.10	37.922	2.428	32.43	0.27	12.874	8.897	65.25		-0.90	0.000
69.37	37.937	2.945	32.41	0.27	12.868	8.895	82.99		-0.90	0.000
69.65	37.954	3.450	32.40	0.26	12.862	8.895	118.49		-0.90	0.000
69.91	37.966	3.954	32.38	0.26	12.873	8.890	134.25		-0.90	0.000
70.19	37.990	4.471	32.36	0.26	12.881	8.888	163.83		-0.90	0.000
70.46	38.014	4.952	32.34	0.26	12.910	8.888	178.63		-0.90	0.000
70.73	38.031	5.433	32.32	0.26	12.908	8.895	211.78		-0.90	0.000
71.00	38.059	5.901	32.29	0.26	12.920	8.903	231.21		-0.90	0.000
71.27	38.090	6.346	32.26	0.26	12.915	8.912	272.61		-0.90	0.000
71.54	38.123	6.779	32.23	0.26	12.918	8.917	285.54		-0.90	0.000
71.82	38.146	7.200	32.20	0.26	12.928	8.919	297.93		-0.90	0.000
72.09	38.183	7.584	32.17	0.26	12.942	8.922	284.41		-0.90	0.000
72.37	38.223	7.969	32.13	0.26	12.991	8.940	236.09		-0.90	0.000
72.64	38.251	8.329	32.10	0.26	13.035	8.977	212.81		-0.90	0.000
72.91	38.292	8.666	32.06	0.26	13.104	8.998	169.41		-0.90	0.000
73.18	38.337	8.978	32.01	0.26	13.185	9.056	148.00		-0.90	0.000
73.45	38.383	9.267	31.97	0.26	13.261	9.127	113.11		-0.90	0.000
73.73	38.413	9.519	31.94	0.26	13.356	9.209	103.58		-0.90	0.000
74.01	38.464	9.760	31.89	0.26	13.462	9.295	79.18		-0.90	0.000
74.27	38.511	9.976	31.84	0.26	13.515	9.398	56.22		-0.90	0.000
74.55	38.546	10.168	31.80	0.26	13.627	9.507	0.95		-0.90	0.000
74.82	38.596	10.313	31.75	0.26	13.754	9.629	-28.56		-0.90	0.000
75.09	38.648	10.445	31.70	0.26	13.879	9.762	-66.18		-0.90	0.000
75.36	38.700	10.553	31.65	0.26	14.012	9.902	-87.40		-0.90	0.000
75.64	38.736	10.625	31.61	0.26	14.166	9.971	-125.19		-0.90	0.000
75.91	38.789	10.673	31.56	0.26	14.304	10.120	-131.52		-0.90	0.000
76.18	38.842	10.697	31.51	0.26	14.447	10.280	-130.35		-0.90	0.000
76.46	38.879	10.685	31.47	0.26	14.520	10.442	-131.81		-0.90	0.000
76.73	38.933	10.649	31.42	0.26	14.661	10.607	-167.49		-0.90	0.000
77.01	38.984	10.589	31.37	0.26	14.811	10.773	-187.49		-0.90	0.000
77.28	39.038	10.493	31.31	0.26	14.955	10.938	-217.89		-0.90	0.000
77.55	39.073	10.373	31.28	0.26	15.107	11.102	-222.31		-0.90	0.000
77.83	39.123	10.216	31.23	0.26	15.269	11.265	-199.00		-0.90	0.000
78.11	39.175	10.036	31.17	0.25	15.440	11.428	-157.11		-0.90	0.000
78.38	39.223	9.832	31.13	0.25	15.628	11.596	-149.59		-0.90	0.000
78.66	39.256	9.603	31.09	0.25	15.845	11.686	-186.03		-0.90	0.000
78.93	39.302	9.351	31.05	0.25	16.029	11.878	-216.99		-0.90	0.000
79.21	39.348	9.062	31.00	0.25	16.221	12.081	-268.57		-0.90	0.000
79.48	39.380	8.762	30.97	0.25	16.322	12.279	-271.11		-0.90	0.000
79.76	39.423	8.425	30.93	0.25	16.489	12.476	-243.32		-0.90	0.000
80.03	39.461	8.077	30.89	0.25	16.655	12.662	-220.67		-0.90	0.000
80.30	39.501	7.704	30.85	0.25	16.817	12.833	-179.37		-0.90	0.000
80.57	39.528	7.308	30.82	0.25	16.960	12.997	-167.52		-0.90	0.000
80.85	39.564	6.899	30.79	0.25	17.091	13.149	-145.42		-0.90	0.000
81.12	39.596	6.478	30.75	0.25	17.217	13.293	-118.82		-0.91	0.000
81.40	39.627	6.022	30.72	0.25	17.332	13.422	-21.26		-0.91	0.000
81.67	39.646	5.553	30.70	0.25	17.443	13.483	18.58		-0.91	0.000
81.94	39.671	5.072	30.68	0.25	17.496	13.604	72.57		-0.91	0.000
82.21	39.696	4.591	30.65	0.25	17.578	13.712	85.00		-0.91	0.000
82.49	39.710	4.087	30.64	0.25	17.656	13.804	101.14		-0.91	0.000
82.76	39.725	3.570	30.62	0.25	17.723	13.885	107.91		-0.91	0.000
83.03	39.743	3.053	30.61	0.25	17.785	13.958	83.00		-0.91	0.000
83.30	39.751	2.524	30.60	0.25	17.841	14.018	51.33		-0.91	0.000
83.56	39.761	1.983	30.59	0.25	17.861	14.070	-30.15		-0.91	0.000
83.84	39.769	1.454	30.58	0.25	17.891	14.111	-68.57		-0.91	0.000
84.11	39.777	0.913	30.57	0.25	17.919	14.125	-150.82		-0.91	0.000
84.39	39.778	0.373	30.57	0.25	17.922	14.153	-183.05		-0.91	0.000
84.65	39.779	-0.168	30.57	0.25	17.929	14.173	-189.68		-0.91	0.000
84.92	39.779	-0.721	30.57	0.25	17.947	14.182	-179.61		-0.91	0.000
85.19	39.779	-1.262	30.57	0.25	17.946	14.183	-166.08		-0.91	0.000
85.46	39.779	-1.803	30.57	0.25	17.938	14.179	-177.80		-0.91	0.000
85.73	39.778	-2.332	30.57	0.25	17.940	14.174	-197.17		-0.91	0.000
86.01	39.768	-2.861	30.58	0.25	17.923	14.165	-194.28		-0.91	0.000
86.28	39.752	-3.389	30.60	0.25	17.908	14.159	-155.90		-0.91	0.000
86.56	39.732	-3.906	30.62	0.25	17.889	14.152	-131.75		-0.91	0.000
86.84	39.707	-4.411	30.64	0.25	17.866	14.139	-104.15		-0.91	0.000
87.11	39.692	-4.928	30.66	0.25	17.848	14.127	-106.80		-0.91	0.000
87.39	39.666	-5.409	30.68	0.25	17.836	14.110	-137.51		-0.91	0.000
87.66	39.638	-5.877	30.71	0.25	17.828	14.096	-159.23		-0.91	0.000
87.94	39.606	-6.334	30.74	0.25	17.812	14.083	-213.66		-0.91	0.000
88.21	39.584	-6.767	30.77	0.25	17.799	14.073	-231.96		-0.91	0.000
88.49	39.551	-7.200	30.80	0.25	17.771	14.059	-252.38		-0.91	0.000
88.77	39.513	-7.596	30.84	0.25	17.714	14.035	-248.78		-0.91	0.000
89.05	39.474	-7.981	30.88	0.25	17.640	13.988	-273.38		-0.91	0.000
89.33	39.446	-8.341	30.90	0.25	17.559	13.913	-333.64		-0.91	0.000
89.61	39.402	-8.678	30.95	0.25	17.470	13.819	-373.04		-0.91	0.000
89.88	39.360	-9.002	30.99	0.25	17.412	13.707	-436.52		-0.91	0.000
90.16	39.315	-9.291	31.03	0.25	17.301	13.586	-463.33		-0.91	0.000
90.44	39.282	-9.555	31.07	0.25	17.179	13.519	-499.35		-0.91	0.000
90.72	39.236	-9.796	31.11	0.25	17.048	13.377	-498.63		-0.91	0.000
90.99	39.183	-10.000	31.17	0.25	16.905	13.229	-485.00		-0.91	0.000
91.27	39.134	-10.192	31.22	0.26	16.762	13.070	-471.15		-0.91	0.000
91.54	39.100	-10.349	31.25	0.26	16.610	12.908	-461.57		-0.91	0.000
91.82	39.048	-10.469	31.30	0.26	16.447	12.740	-454.20		-0.91	0.000
92.09	38.995	-10.565	31.36	0.26	16.293	12.568	-418.78		-0.91	0.000
92.37	38.942	-10.637	31.41	0.26	16.129	12.394	-381.38		-0.91	0.000
92.64	38.907	-10.685	31.44	0.26	15.965	12.216	-283.16		-0.91	0.000
92.92	38.852	-10.697	31.50	0.26	15.890	12.038	-241.57		-0.91	0.000
93.19	38.801	-10.685	31.55	0.26	15.728	11.856	-196.36		-0.91	0.000
93.48	38.746	-10.637	31.60	0.26	15.574	11.685	-196.34		-0.91	0.000
93.76	38.693	-10.565	31.66	0.26	15.416	11.513	-215.93		-0.91	0.000
94.04	38.659	-10.457	31.69	0.26	15.258	11.342	-227.95		-0.91	0.000
94.31	38.606	-10.325	31.74	0.26	15.094	11.255	-226.06		-0.91	0.000
94.59	38.555	-10.168	31.80	0.26	14.934	11.082	-188.33		-0.91	0.000
94.87	38.505	-9.976	31.85	0.26	14.779	10.908	-165.28		-0.91	0.000
95.14	38.473	-9.760	31.88	0.26	14.610	10.733	-122.33		-0.91	0.000
95.42	38.424	-9.519	31.93	0.26	14.422	10.562	-110.28		-0.91	0.000
95.70	38.377	-9.255	31.97	0.26	14.237	10.384	-86.05		-0.91	0.000
95.97	38.332	-8.966	32.02	0.26	14.052	10.199	-59.09		-0.91	0.000
96.25	38.302	-8.642	32.05	0.26	13.869	10.013	7.23		-0.91	0.000
96.52	38.261	-8.305	32.09	0.26	13.780	9.833	34.46		-0.91	0.000
96.79	38.219	-7.945	32.13	0.26	13.623	9.663	62.76		-0.91	0.000
97.06	38.193	-7.572	32.16	0.26	13.480	9.505	63.73		-0.91	0.000
97.34	38.157	-7.163	32.19	0.26	13.354	9.366	59.92		-0.91	0.000
97.61	38.122	-6.755	32.23	0.26	13.225	9.302	58.48		-0.91	0.000
97.89	38.091	-6.310	32.26	0.26	13.124	9.184	50.15		-0.91	0.000
98.15	38.069	-5.865	32.28	0.26	13.018	9.075	44.86		-0.91	0.000
98.43	38.041	-5.397	32.31	0.26	12.935	8.979	35.22		-0.91	0.000
98.70	38.016	-4.916	32.33	0.26	12.862	8.891	30.69		-0.91	0.000
98.97	38.001	-4.411	32.35	0.26	12.816	8.814	26.40		-0.91	0.000
99.25	37.979	-3.918	32.37	0.26	12.754	8.745	35.24		-0.91	0.000
99.52	37.964	-3.389	32.39	0.26	12.704	8.681	49.84		-0.91	0.000
99.79	37.948	-2.873	32.40	0.26	12.654	8.631	44.03		-0.91	0.000
100.06	37.941	-2.332	32.41	0.26	12.607	8.608	34.24		-0.91	0.000
100.32	37.932	-1.803	32.42	0.27	12.594	8.568	30.69		-0.91	0.000
100.60	37.923	-1.274	32.43	0.27	12.562	8.536	20.97		-0.91	0.000
100.86	37.920	-0.733	32.43	0.27	12.560	8.513	18.64		-0.91	0.000
101.13	37.918	-0.180	32.43	0.27	12.545	8.494	11.67		-0.91	0.000
101.40	37.918	0.337	32.43	0.27	12.541	8.484	8.51		-0.91	0.000
101.66	37.918	0.877	32.43	0.27	12.538	8.478	-19.39		-0.91	0.000
101.93	37.918	1.418	32.43	0.27	12.542	8.476	-37.25		-0.91	0.000
102.20	37.918	1.935	32.43	0.27	12.537	8.475	-81.58		-0.91	0.000
102.47	37.924	2.464	32.43	0.27	12.539	8.474	-94.25		-0.91	0.000
102.74	37.934	2.993	32.42	0.27	12.538	8.472	-113.21		-0.91	0.000
103.01	37.956	3.522	32.39	0.26	12.531	8.469	-126.34		-0.91	0.000
103.28	37.965	4.026	32.38	0.26	12.539	8.466	-175.09		-0.91	0.000
103.56	37.990	4.531	32.36	0.26	12.547	8.462	-204.12		-0.91	0.000
103.83	38.014	5.024	32.34	0.26	12.541	8.460	-272.85		-0.91	0.000
104.10	38.040	5.505	32.31	0.26	12.543	8.460	-297.99		-0.91	0.000
104.38	38.059	5.962	32.29	0.26	12.552	8.460	-330.61		-0.91	0.000
104.65	38.092	6.418	32.26	0.26	12.549	8.460	-341.24		-0.91	0.000
104.92	38.125	6.851	32.22	0.26	12.553	8.460	-357.22		-0.91	0.000
105.20	38.148	7.260	32.20	0.26	12.572	8.460	-360.51		-0.91	0.000
105.48	38.184	7.656	32.17	0.26	12.594	8.468	-343.31		-0.91	0.000
105.75	38.224	8.029	32.13	0.26	12.624	8.492	-322.16		-0.91	0.000
106.03	38.266	8.401	32.08	0.26	12.664	8.522	-275.89		-0.91	0.000
106.30	38.296	8.726	32.05	0.26	12.716	8.565	-246.03		-0.91	0.000
106.57	38.339	9.038	32.01	0.26	12.772	8.619	-191.53		-0.91	0.000
106.85	38.386	9.315	31.96	0.26	12.854	8.679	-165.19		-0.91	0.000
107.12	38.433	9.579	31.92	0.26	12.932	8.750	-129.00		-0.91	0.000
107.40	38.464	9.808	31.89	0.26	13.015	8.829	-108.34		-0.91	0.000
107.67	38.515	10.012	31.83	0.26	13.112	8.873	-88.52		-0.91	0.000
107.94	38.565	10.192	31.78	0.26	13.219	8.962	-84.79		-0.91	0.000
108.22	38.600	10.349	31.75	0.26	13.279	9.068	-83.48		-0.91	0.000
108.50	38.651	10.481	31.70	0.26	13.397	9.185	-100.32		-0.91	0.000
108.77	38.704	10.577	31.65	0.26	13.525	9.311	-109.31		-0.91	0.000
109.04	38.757	10.649	31.59	0.26	13.662	9.446	-132.63		-0.91	0.000
109.31	38.793	10.685	31.56	0.26	13.798	9.594	-136.76		-0.91	0.000
109.59	38.846	10.697	31.50	0.26	13.950	9.755	-131.39		-0.91	0.000
109.87	38.900	10.685	31.45	0.26	14.090	9.919	-123.19		-0.91	0.000
110.14	38.954	10.637	31.40	0.26	14.252	10.087	-115.58		-0.91	0.000
110.42	38.987	10.565	31.36	0.26	14.410	10.254	-102.15		-0.91	0.000
110.69	39.041	10.457	31.31	0.26	14.586	10.341	-43.30		-0.91	0.000
110.96	39.093	10.325	31.26	0.26	14.662	10.510	-4.52		-0.91	0.000
111.24	39.143	10.180	31.21	0.26	14.834	10.678	68.43		-0.91	0.000
111.51	39.177	9.988	31.17	0.25	15.019	10.853	104.99		-0.91	0.000
111.79	39.225	9.772	31.12	0.25	15.223	11.033	172.73		-0.91	0.000
112.06	39.275	9.543	31.07	0.25	15.448	11.229	205.59		-0.91	0.000
112.34	39.305	9.279	31.05	0.25	15.644	11.439	230.03		-0.91	0.000
112.61	39.351	8.990	31.00	0.25	15.846	11.657	208.05		-0.91	0.000
112.89	39.395	8.678	30.96	0.25	16.043	11.866	124.59		-0.91	0.000
113.16	39.439	8.341	30.91	0.25	16.229	12.071	77.73		-0.91	0.000
113.43	39.464	7.981	30.89	0.25	16.319	12.270	-26.23		-0.91	0.000
113.70	39.504	7.608	30.85	0.25	16.489	12.362	-72.75		-0.91	0.000
113.98	39.541	7.212	30.81	0.25	16.634	12.544	-145.62		-0.91	0.000
114.25	39.577	6.803	30.77	0.25	16.785	12.711	-174.27		-0.91	0.000
114.53	39.596	6.358	30.75	0.25	16.920	12.869	-227.18		-0.91	0.000
114.80	39.629	5.901	30.72	0.25	17.052	13.014	-252.27		-0.91	0.000
115.08	39.656	5.433	30.69	0.25	17.153	13.149	-301.64		-0.91	0.000
115.34	39.673	4.952	30.68	0.25	17.256	13.273	-315.86		-0.91	0.000
115.62	39.695	4.447	30.66	0.25	17.343	13.384	-317.98		-0.91	0.000
115.89	39.716	3.954	30.63	0.25	17.415	13.483	-313.72		-0.91	0.000
116.17	39.734	3.425	30.62	0.25	17.468	13.566	-286.25		-0.91	0.000
116.44	39.743	2.909	30.61	0.25	17.523	13.640	-250.06		-0.91	0.000
116.71	39.754	2.368	30.60	0.25	17.579	13.676	-175.86		-0.91	0.000
116.99	39.768	1.827	30.58	0.25	17.615	13.734	-145.46		-0.91	0.000
117.26	39.769	1.286	30.58	0.25	17.649	13.778	-91.14		-0.91	0.000
117.53	39.777	0.745	30.57	0.25	17.678	13.817	-66.23		-0.91	0.000
117.80	39.777	0.192	30.57	0.25	17.686	13.847	-54.31		-0.91	0.000
118.06	39.777	-0.337	30.57	0.25	17.689	13.864	-63.56		-0.91	0.000
118.33	39.777	-0.877	30.57	0.25	17.690	13.871	-51.92		-0.91	0.000
118.60	39.777	-1.406	30.57	0.25	17.688	13.873	-23.90		-0.91	0.000
118.87	39.777	-1.947	30.57	0.25	17.688	13.873	54.79		-0.91	0.000
119.14	39.774	-2.476	30.58	0.25	17.689	13.866	89.66		-0.91	0.000
119.41	39.756	-3.005	30.59	0.25	17.672	13.863	123.18		-0.91	0.000
119.68	39.739	-3.510	30.61	0.25	17.654	13.856	125.82		-0.91	0.000
119.96	39.728	-4.026	30.62	0.25	17.643	13.852	105.87		-0.91	0.000
120.23	39.705	-4.531	30.65	0.25	17.608	13.842	82.16		-0.91	0.000
120.51	39.682	-5.024	30.67	0.25	17.600	13.828	28.69		-0.91	0.000
120.78	39.664	-5.517	30.69	0.25	17.596	13.815	23.32		-0.91	0.000
121.05	39.636	-5.974	30.71	0.25	17.586	13.805	32.85		-0.91	0.000
121.32	39.604	-6.430	30.75	0.25	17.578	13.793	39.77		-0.91	0.000
121.60	39.569	-6.863	30.78	0.25	17.558	13.788	52.76		-0.91	0.000
121.87	39.546	-7.272	30.80	0.25	17.532	13.778	63.57		-0.91	0.000
122.14	39.510	-7.668	30.84	0.25	17.475	13.756	81.63		-0.91	0.000
122.42	39.469	-8.041	30.88	0.25	17.400	13.714	70.31		-0.91	0.000
122.70	39.441	-8.389	30.91	0.25	17.320	13.642	-3.07		-0.91	0.000
122.97	39.400	-8.726	30.95	0.25	17.225	13.545	-79.88		-0.91	0.000
123.24	39.355	-9.038	31.00	0.25	17.164	13.436	-102.41		-0.91	0.000
123.52	39.310	-9.315	31.04	0.25	17.047	13.309	-129.63		-0.91	0.000
123.79	39.277	-9.579	31.07	0.25	16.924	13.170	-135.80		-0.91	0.000
124.07	39.230	-9.820	31.12	0.25	16.791	13.018	-158.82		-0.91	0.000
124.35	39.178	-10.024	31.17	0.25	16.644	12.860	-170.02		-0.91	0.000
124.63	39.129	-10.204	31.22	0.26	16.491	12.776	-215.68		-0.91	0.000
124.90	39.095	-10.361	31.26	0.26	16.332	12.606	-245.25		-0.91	0.000
125.18	39.043	-10.481	31.31	0.26	16.172	12.432	-291.64		-0.91	0.000
125.45	38.989	-10.577	31.36	0.26	16.011	12.252	-286.45		-0.91	0.000
125.73	38.937	-10.649	31.41	0.26	15.843	12.076	-225.61		-0.91	0.000
126.01	38.883	-10.685	31.47	0.26	15.667	11.894	-180.02		-0.91	0.000
126.29	38.850	-10.697	31.50	0.26	15.593	11.708	-95.14		-0.91	0.000
126.56	38.796	-10.673	31.55	0.26	15.431	11.526	-56.65		-0.91	0.000
126.84	38.741	-10.625	31.61	0.26	15.268	11.350	10.12		-0.91	0.000
127.11	38.707	-10.553	31.64	0.26	15.110	11.176	30.92		-0.91	0.000
127.38	38.654	-10.445	31.70	0.26	14.934	10.997	52.70		-0.91	0.000
127.66	38.602	-10.313	31.75	0.26	14.776	10.821	74.85		-0.91	0.000
127.93	38.551	-10.156	31.80	0.26	14.608	10.645	120.31		-0.91	0.000
128.20	38.518	-9.964	31.83	0.26	14.450	10.559	154.33		-0.91	0.000
128.48	38.468	-9.760	31.88	0.26	14.269	10.385	215.48		-0.91	0.000
128.76	38.420	-9.519	31.93	0.26	14.072	10.208	244.28		-0.91	0.000
129.03	38.374	-9.243	31.98	0.26	13.979	10.027	230.01		-0.91	0.000
129.31	38.343	-8.954	32.01	0.26	13.776	9.836	167.41		-0.91	0.000
129.58	38.298	-8.642	32.05	0.26	13.600	9.649	125.74		-0.91	0.000
129.85	38.256	-8.305	32.09	0.26	13.422	9.472	73.44		-0.91	0.000
130.13	38.231	-7.945	32.12	0.26	13.271	9.305	67.59		-0.91	0.000
130.40	38.189	-7.560	32.16	0.26	13.130	9.158	66.41		-0.91	0.000
130.68	38.154	-7.163	32.20	0.26	13.010	9.019	66.15		-0.91	0.000
130.95	38.120	-6.743	32.23	0.26	12.894	8.899	57.97		-0.91	0.000
131.23	38.097	-6.310	32.25	0.26	12.778	8.843	53.09		-0.91	0.000
131.50	38.069	-5.853	32.28	0.26	12.702	8.739	44.12		-0.91	0.000
131.77	38.041	-5.385	32.31	0.26	12.650	8.647	47.32		-0.91	0.000
132.05	38.015	-4.892	32.33	0.26	12.571	8.564	73.38		-0.91	0.000
132.32	38.000	-4.399	32.35	0.26	12.519	8.490	94.87		-0.91	0.000
132.59	37.978	-3.894	32.37	0.26	12.443	8.426	135.43		-0.91	0.000
132.87	37.964	-3.377	32.39	0.26	12.393	8.372	146.64		-0.91	0.000
133.14	37.955	-2.849	32.40	0.26	12.353	8.323	144.19		-0.91	0.000
133.41	37.940	-2.308	32.41	0.26	12.328	8.285	137.80		-0.91	0.000
133.68	37.928	-1.767	32.42	0.27	12.296	8.250	86.56		-0.91	0.000
133.95	37.925	-1.226	32.42	0.27	12.281	8.235	45.00		-0.91	0.000
134.22	37.918	-0.685	32.43	0.27	12.287	8.212	-67.71		-0.91	0.000
134.49	37.918	-0.144	32.43	0.27	12.252	8.199	-131.08		-0.91	0.000
134.76	37.918	0.385	32.43	0.27	12.267	8.184	-243.09		-0.91	0.000
135.03	37.918	0.925	32.43	0.27	12.252	8.178	-283.12		-0.91	0.000
135.30	37.918	1.466	32.43	0.27	12.255	8.174	-354.95		-0.91	0.000
135.56	37.918	2.007	32.43	0.27	12.257	8.172	-387.76		-0.91	0.000
135.83	37.925	2.548	32.42	0.27	12.258	8.172	-442.18		-0.91	0.000
136.11	37.938	3.053	32.41	0.26	12.253	8.172	-451.75		-0.91	0.000
136.38	37.954	3.570	32.40	0.26	12.244	8.170	-428.18		-0.91	0.000
136.65	37.972	4.099	32.38	0.26	12.251	8.165	-392.95		-0.91	0.000
136.92	37.993	4.591	32.36	0.26	12.253	8.161	-286.68		-0.91	0.000
137.20	38.018	5.072	32.33	0.26	12.256	8.160	-226.94		-0.91	0.000
137.47	38.043	5.553	32.31	0.26	12.253	8.158	-105.17		-0.91	0.000
137.75	38.063	6.022	32.29	0.26	12.256	8.157	-48.03		-0.91	0.000
138.02	38.096	6.478	32.25	0.26	12.256	8.157	55.97		-0.91	0.000
138.29	38.129	6.899	32.22	0.26	12.263	8.157	94.60		-0.91	0.000
138.57	38.165	7.308	32.18	0.26	12.272	8.161	146.93		-0.91	0.000
138.84	38.189	7.704	32.16	0.26	12.292	8.172	152.89		-0.91	0.000
139.12	38.229	8.089	32.12	0.26	12.315	8.183	136.68		-0.91	0.000
139.39	38.270	8.438	32.08	0.26	12.344	8.211	116.37		-0.91	0.000
139.67	38.300	8.762	32.05	0.26	12.397	8.248	62.96		-0.91	0.000
139.93	38.343	9.075	32.01	0.26	12.451	8.292	34.05		-0.91	0.000
140.21	38.391	9.351	31.96	0.26	12.519	8.343	-14.19		-0.91	0.000
140.48	38.438	9.591	31.91	0.26	12.591	8.404	-36.42		-0.91	0.000
140.75	38.470	9.832	31.88	0.26	12.664	8.473	-72.18		-0.91	0.000
141.03	38.519	10.036	31.83	0.26	12.748	8.553	-88.94		-0.91	0.000
141.31	38.572	10.216	31.78	0.26	12.792	8.638	-91.68		-0.91	0.000
141.58	38.605	10.361	31.75	0.26	12.900	8.733	-83.58		-0.91	0.000
141.86	38.657	10.481	31.69	0.26	13.003	8.791	-73.63		-0.91	0.000
142.13	38.710	10.577	31.64	0.26	13.123	8.907	-68.42		-0.91	0.000
142.40	38.764	10.649	31.59	0.26	13.256	9.030	-57.30		-0.91	0.000
142.67	38.797	10.685	31.55	0.26	13.387	9.167	-51.89		-0.91	0.000
142.94	38.851	10.697	31.50	0.26	13.525	9.316	-53.63		-0.91	0.000
143.22	38.905	10.673	31.45	0.26	13.685	9.471	-61.72		-0.91	0.000
143.49	38.941	10.625	31.41	0.26	13.851	9.637	-70.58		-0.91	0.000
143.77	38.993	10.553	31.36	0.26	14.013	9.807	-68.98		-0.91	0.000
144.04	39.047	10.457	31.30	0.26	14.098	9.977	-62.79		-0.91	0.000
144.31	39.097	10.313	31.25	0.26	14.271	10.151	-46.22		-0.91	0.000
144.59	39.133	10.168	31.22	0.26	14.448	10.239	-31.51		-0.91	0.000
144.86	39.183	9.976	31.17	0.25	14.650	10.419	-8.54		-0.91	0.000
145.13	39.232	9.760	31.12	0.25	14.878	10.608	5.23		-0.91	0.000
145.41	39.264	9.531	31.09	0.25	15.095	10.818	34.93		-0.91	0.000
145.68	39.311	9.267	31.04	0.25	15.306	11.044	47.44		-0.91	0.000
145.96	39.357	8.978	30.99	0.25	15.521	11.267	78.56		-0.91	0.000
146.23	39.402	8.666	30.95	0.25	15.723	11.488	89.45		-0.91	0.000
146.50	39.428	8.329	30.92	0.25	15.813	11.703	94.94		-0.91	0.000
146.77	39.469	7.969	30.88	0.25	16.006	11.904	89.61		-0.91	0.000
147.05	39.507	7.596	30.84	0.25	16.178	12.096	72.03		-0.91	0.000
147.32	39.546	7.200	30.80	0.25	16.329	12.278	71.74		-0.91	0.000
147.59	39.568	6.779	30.78	0.25	16.486	12.362	88.10		-0.91	0.000
147.86	39.601	6.334	30.75	0.25	16.634	12.526	96.53		-0.91	0.000
148.14	39.630	5.889	30.72	0.25	16.758	12.682	97.46		-0.91	0.000
148.41	39.651	5.433	30.70	0.25	16.881	12.824	84.63		-0.91	0.000
148.68	39.675	4.952	30.67	0.25	16.984	12.954	65.59		-0.91	0.000
148.95	39.700	4.447	30.65	0.25	17.031	13.071	63.25		-0.91	0.000
149.23	39.715	3.954	30.63	0.25	17.128	13.176	76.37		-0.91	0.000
149.51	39.727	3.438	30.62	0.25	17.194	13.273	87.28		-0.91	0.000
149.77	39.745	2.909	30.61	0.25	17.276	13.347	111.24		-0.91	0.000
150.04	39.759	2.356	30.59	0.25	17.313	13.385	113.44		-0.91	0.000
150.31	39.761	1.839	30.59	0.25	17.353	13.449	91.27		-0.91	0.000
150.58	39.769	1.298	30.58	0.25	17.395	13.498	79.28		-0.91	0.000
150.85	39.777	0.757	30.57	0.25	17.423	13.538	69.56		-0.91	0.000
151.12	39.777	0.216	30.57	0.25	17.416	13.572	83.31		-0.91	0.000
151.39	39.777	-0.313	30.57	0.25	17.427	13.590	130.59		-0.91	0.000
151.65	39.777	-0.853	30.57	0.25	17.439	13.599	148.18		-0.91	0.000
151.92	39.777	-1.394	30.57	0.25	17.437	13.602	153.85		-0.91	0.000
152.19	39.777	-1.923	30.57	0.25	17.438	13.603	148.39		-0.91	0.000
152.46	39.771	-2.464	30.58	0.25	17.443	13.599	127.91		-0.91	0.000
152.75	39.756	-2.981	30.59	0.25	17.421	13.597	117.14		-0.91	0.000
153.03	39.745	-3.498	30.61	0.25	17.409	13.593	106.85		-0.91	0.000
153.30	39.724	-4.038	30.63	0.25	17.392	13.589	105.01		-0.91	0.000
153.57	39.702	-4.555	30.65	0.25	17.373	13.582	86.15		-0.91	0.000
153.85	39.679	-5.048	30.67	0.25	17.368	13.570	74.86		-0.91	0.000
154.12	39.661	-5.529	30.69	0.25	17.361	13.562	61.53		-0.91	0.000
154.40	39.632	-5.998	30.72	0.25	17.351	13.552	58.23		-0.91	0.000
154.68	39.600	-6.430	30.75	0.25	17.343	13.545	71.86		-0.91	0.000
154.94	39.579	-6.875	30.77	0.25	17.327	13.537	74.84		-0.91	0.000
155.23	39.543	-7.296	30.81	0.25	17.288	13.526	75.75		-0.91	0.000
155.50	39.504	-7.680	30.85	0.25	17.224	13.515	74.96		-0.91	0.000
155.77	39.466	-8.065	30.88	0.25	17.157	13.467	63.09		-0.91	0.000
156.05	39.439	-8.413	30.91	0.25	17.070	13.394	49.89		-0.91	0.000
156.32	39.395	-8.750	30.96	0.25	17.021	13.297	-12.46		-0.91	0.000
156.59	39.351	-9.050	31.00	0.25	16.914	13.181	-52.68		-0.91	0.000
156.87	39.305	-9.339	31.05	0.25	16.795	13.053	-155.57		-0.91	0.000
157.14	39.272	-9.591	31.08	0.25	16.666	12.912	-210.10		-0.91	0.000
157.42	39.223	-9.820	31.13	0.25	16.526	12.757	-318.19		-0.91	0.000
157.70	39.175	-10.036	31.17	0.25	16.379	12.593	-399.76		-0.91	0.000
157.98	39.124	-10.204	31.23	0.26	16.223	12.425	-433.20		-0.91	0.000
158.26	39.089	-10.361	31.26	0.26	16.062	12.249	-487.17		-0.91	0.000
158.53	39.038	-10.493	31.31	0.26	15.905	12.070	-499.63		-0.91	0.000
158.81	38.984	-10.589	31.37	0.26	15.732	11.980	-482.28		-0.91	0.000
159.09	38.932	-10.649	31.42	0.26	15.563	11.798	-452.29		-0.91	0.000
159.36	38.896	-10.685	31.45	0.26	15.481	11.610	-371.01		-0.91	0.000
159.64	38.843	-10.697	31.51	0.26	15.307	11.422	-326.19		-0.91	0.000
159.92	38.789	-10.673	31.56	0.26	15.140	11.239	-246.83		-0.91	0.000
160.20	38.736	-10.625	31.61	0.26	14.983	11.055	-212.22		-0.91	0.000
160.47	38.702	-10.541	31.65	0.26	14.814	10.884	-148.01		-0.91	0.000
160.75	38.648	-10.433	31.70	0.26	14.648	10.705	-120.31		-0.91	0.000
161.02	38.597	-10.300	31.75	0.26	14.484	10.524	-90.99		-0.91	0.000
161.30	38.546	-10.132	31.80	0.26	14.316	10.349	-98.53		-0.91	0.000
161.58	38.513	-9.940	31.84	0.26	14.152	10.175	-148.28		-0.91	0.000
161.85	38.463	-9.724	31.89	0.26	13.970	10.008	-209.62		-0.91	0.000
162.13	38.415	-9.483	31.93	0.26	13.772	9.836	-236.44		-0.91	0.000
162.41	38.369	-9.207	31.98	0.26	13.577	9.652	-294.28		-0.91	0.000
162.69	38.323	-8.918	32.03	0.26	13.382	9.461	-328.18		-0.91	0.000
162.96	38.293	-8.582	32.06	0.26	13.291	9.366	-388.04		-0.91	0.000
163.24	38.251	-8.245	32.10	0.26	13.128	9.186	-406.59		-0.91	0.000
163.52	38.213	-7.873	32.14	0.26	12.974	9.022	-414.27		-0.91	0.000
163.80	38.174	-7.488	32.18	0.26	12.843	8.872	-414.91		-0.91	0.000
164.08	38.151	-7.067	32.20	0.26	12.717	8.743	-407.85		-0.91	0.000
164.35	38.115	-6.647	32.23	0.26	12.613	8.628	-401.04		-0.91	0.000
164.64	38.084	-6.190	32.27	0.26	12.518	8.524	-390.61		-0.91	0.000
164.91	38.056	-5.733	32.29	0.26	12.430	8.428	-390.79		-0.91	0.000
165.19	38.034	-5.240	32.32	0.26	12.346	8.345	-404.85		-0.91	0.000
165.46	38.013	-4.760	32.34	0.26	12.289	8.266	-406.66		-0.91	0.000
165.74	37.990	-4.255	32.36	0.26	12.226	8.202	-405.63		-0.91	0.000
166.02	37.973	-3.738	32.38	0.26	12.171	8.144	-435.69		-0.91	0.000
166.30	37.959	-3.209	32.39	0.26	12.167	8.094	-460.39		-0.91	0.000
166.57	37.947	-2.668	32.40	0.26	12.122	8.052	-494.62		-0.91	0.000
166.84	37.937	-2.127	32.41	0.27	12.078	8.035	-486.83		-0.91	0.000
167.12	37.928	-1.575	32.42	0.27	12.062	8.003	-436.10		-0.91	0.000
167.39	37.920	-1.034	32.43	0.27	12.036	7.977	-392.05		-0.91	0.000
167.66	37.920	-0.481	32.43	0.27	12.044	7.960	-291.39		-0.91	0.000
167.93	37.919	0.060	32.43	0.27	12.034	7.947	-237.71		-0.91	0.000
168.19	37.919	0.601	32.43	0.27	12.037	7.942	-126.36		-0.91	0.000
168.46	37.919	1.142	32.43	0.27	12.030	7.939	-76.97		-0.91	0.000
168.73	37.919	1.671	32.43	0.27	12.036	7.939	32.04		-0.91	0.000
169.00	37.919	2.212	32.43	0.27	12.040	7.940	86.43		-0.91	0.000
169.27	37.933	2.740	32.42	0.27	12.031	7.941	174.85		-0.91	0.000
169.54	37.946	3.245	32.40	0.26	12.032	7.942	195.93		-0.91	0.000
169.81	37.956	3.762	32.39	0.26	12.025	7.938	209.94		-0.91	0.000
170.08	37.979	4.267	32.37	0.26	12.027	7.932	211.58		-0.91	0.000
170.36	38.002	4.760	32.35	0.26	12.027	7.925	201.86		-0.91	0.000
170.63	38.027	5.252	32.32	0.26	12.025	7.923	194.03		-0.91	0.000
170.91	38.047	5.733	32.30	0.26	12.033	7.922	178.74		-0.91	0.000
171.18	38.077	6.190	32.27	0.26	12.030	7.922	178.16		-0.91	0.000
171.45	38.110	6.635	32.24	0.26	12.032	7.923	165.70		-0.91	0.000
171.73	38.131	7.055	32.22	0.26	12.040	7.923	140.18		-0.91	0.000
172.00	38.169	7.452	32.18	0.26	12.048	7.927	55.40		-0.91	0.000
172.27	38.206	7.849	32.14	0.26	12.072	7.937	20.12		-0.91	0.000
172.55	38.248	8.209	32.10	0.26	12.095	7.956	-37.40		-0.91	0.000
172.82	38.274	8.546	32.08	0.26	12.134	7.983	-71.09		-0.91	0.000
173.10	38.318	8.870	32.03	0.26	12.175	8.020	-146.31		-0.91	0.000
173.37	38.364	9.171	31.99	0.26	12.204	8.063	-186.67		-0.91	0.000
173.64	38.410	9.447	31.94	0.26	12.262	8.113	-271.12		-0.91	0.000
173.92	38.442	9.688	31.91	0.26	12.330	8.173	-322.25		-0.91	0.000
174.19	38.491	9.904	31.86	0.26	12.405	8.243	-434.49		-0.91	0.000
174.47	38.541	10.108	31.81	0.26	12.477	8.278	-470.65		-0.91	0.000
174.74	38.575	10.276	31.77	0.26	12.577	8.357	-483.38		-0.91	0.000
175.01	38.628	10.409	31.72	0.26	12.670	8.446	-467.09		-0.91	0.000
175.29	38.679	10.529	31.67	0.26	12.776	8.548	-409.92		-0.91	0.000
175.56	38.732	10.613	31.62	0.26	12.890	8.661	-371.42		-0.91	0.000
175.84	38.768	10.661	31.58	0.26	13.022	8.780	-301.01		-0.91	0.000
176.11	38.822	10.697	31.53	0.26	13.089	8.916	-261.56		-0.91	0.000
176.39	38.874	10.697	31.48	0.26	13.226	9.062	-203.84		-0.91	0.000
176.66	38.928	10.661	31.42	0.26	13.388	9.220	-187.44		-0.91	0.000
176.94	38.964	10.601	31.39	0.26	13.542	9.383	-156.90		-0.91	0.000
177.21	39.015	10.517	31.33	0.26	13.706	9.552	-146.56		-0.91	0.000
177.49	39.068	10.397	31.28	0.26	13.885	9.724	-121.53		-0.91	0.000
177.76	39.104	10.264	31.25	0.26	14.049	9.812	-116.39		-0.91	0.000
178.04	39.154	10.084	31.20	0.26	14.249	9.990	-104.35		-0.91	0.000
178.30	39.204	9.892	31.15	0.25	14.478	10.177	-105.49		-0.91	0.000
178.58	39.252	9.663	31.10	0.25	14.714	10.385	-114.24		-0.91	0.000
178.86	39.284	9.423	31.07	0.25	14.822	10.614	-148.11		-0.91	0.000
179.13	39.330	9.147	31.02	0.25	15.031	10.846	-164.60		-0.91	0.000
179.41	39.377	8.846	30.97	0.25	15.254	11.076	-155.41		-0.91	0.000
179.68	39.420	8.522	30.93	0.25	15.454	11.299	-130.97		-0.91	0.000
179.95	39.447	8.173	30.90	0.25	15.651	11.516	-47.13		-0.91	0.000
180.23	39.484	7.813	30.87	0.25	15.831	11.724	-8.13		-0.91	0.000
180.50	39.524	7.428	30.83	0.25	16.011	11.823	26.41		-0.91	0.000
180.77	39.550	7.019	30.80	0.25	16.175	12.014	22.02		-0.91	0.000
181.03	39.582	6.599	30.77	0.25	16.322	12.189	0.97		-0.91	0.000
181.30	39.615	6.154	30.73	0.25	16.407	12.355	-9.45		-0.91	0.000
181.58	39.632	5.709	30.72	0.25	16.530	12.512	-4.60		-0.91	0.000
181.85	39.661	5.240	30.69	0.25	16.653	12.656	10.73		-0.91	0.000
182.11	39.687	4.760	30.66	0.25	16.763	12.781	34.80		-0.91	0.000
182.38	39.707	4.267	30.64	0.25	16.855	12.901	43.28		-0.91	0.000
182.65	39.721	3.762	30.63	0.25	16.937	13.003	43.45		-0.91	0.000
182.92	39.736	3.257	30.61	0.25	17.011	13.048	38.26		-0.91	0.000
183.19	39.751	2.740	30.60	0.25	17.039	13.132	26.82		-0.91	0.000
183.45	39.760	2.200	30.59	0.25	17.096	13.203	-1.74		-0.91	0.000
183.72	39.768	1.671	30.58	0.25	17.138	13.267	-12.36		-0.91	0.000
183.99	39.775	1.142	30.57	0.25	17.168	13.310	-52.76		-0.91	0.000
184.26	39.777	0.601	30.57	0.25	17.195	13.349	-80.81		-0.91	0.000
184.53	39.778	0.060	30.57	0.25	17.207	13.378	-158.45		-0.91	0.000
184.80	39.778	-0.481	30.57	0.25	17.224	13.384	-201.04		-0.91	0.000
185.08	39.778	-1.022	30.57	0.25	17.226	13.396	-265.46		-0.91	0.000
185.34	39.778	-1.550	30.57	0.25	17.214	13.400	-294.20		-0.91	0.000
185.62	39.778	-2.103	30.57	0.25	17.228	13.399	-349.78		-0.91	0.000
185.88	39.771	-2.632	30.58	0.25	17.222	13.396	-375.73		-0.91	0.000
186.16	39.755	-3.161	30.60	0.25	17.211	13.393	-389.13		-0.91	0.000
186.44	39.738	-3.666	30.61	0.25	17.198	13.390	-375.84		-0.91	0.000
186.72	39.719	-4.195	30.63	0.25	17.178	13.387	-332.11		-0.91	0.000
186.99	39.704	-4.700	30.65	0.25	17.167	13.380	-266.81		-0.91	0.000
187.27	39.677	-5.192	30.67	0.25	17.155	13.370	-229.68		-0.91	0.000
187.55	39.648	-5.673	30.70	0.25	17.148	13.362	-162.71		-0.91	0.000
187.82	39.620	-6.142	30.73	0.25	17.138	13.353	-146.79		-0.91	0.000
188.10	39.598	-6.599	30.75	0.25	17.135	13.350	-144.17		-0.91	0.000
188.38	39.565	-7.019	30.78	0.25	17.119	13.342	-157.32		-0.91	0.000
188.67	39.527	-7.428	30.82	0.25	17.067	13.334	-158.47		-0.91	0.000
188.94	39.489	-7.837	30.86	0.25	17.017	13.303	-155.53		-0.91	0.000
189.23	39.448	-8.209	30.90	0.25	16.936	13.241	-131.30		-0.91	0.000
189.50	39.421	-8.558	30.93	0.25	16.852	13.155	-112.32		-0.91	0.000
189.78	39.378	-8.882	30.97	0.25	16.733	13.046	-65.55		-0.91	0.000
190.05	39.330	-9.183	31.02	0.25	16.625	12.920	-40.38		-0.91	0.000
190.32	39.286	-9.459	31.06	0.25	16.496	12.779	-6.72		-0.91	0.000
190.59	39.254	-9.700	31.10	0.25	16.353	12.624	11.37		-0.91	0.000
190.87	39.204	-9.916	31.15	0.25	16.201	12.461	63.58		-0.91	0.000
191.14	39.152	-10.108	31.20	0.26	16.050	12.288	100.55		-0.91	0.000
191.42	39.120	-10.276	31.23	0.26	15.974	12.111	172.54		-0.91	0.000
191.69	39.068	-10.421	31.28	0.26	15.818	12.017	195.03		-0.91	0.000
191.96	39.015	-10.529	31.33	0.26	15.649	11.834	197.66		-0.91	0.000
192.24	38.963	-10.613	31.39	0.26	15.483	11.647	175.59		-0.91	0.000
192.51	38.927	-10.661	31.42	0.26	15.305	11.459	167.04		-0.91	0.000
192.79	38.875	-10.697	31.47	0.26	15.136	11.270	158.50		-0.91	0.000
193.07	38.820	-10.685	31.53	0.26	14.962	11.080	162.10		-0.91	0.000
193.34	38.766	-10.661	31.58	0.26	14.804	10.897	192.81		-0.91	0.000
193.62	38.733	-10.601	31.62	0.26	14.638	10.714	212.58		-0.91	0.000
193.89	38.679	-10.517	31.67	0.26	14.460	10.537	237.20		-0.91	0.000
194.17	38.627	-10.397	31.72	0.26	14.380	10.354	242.15		-0.91	0.000
194.44	38.592	-10.252	31.76	0.26	14.208	10.173	252.50		-0.91	0.000
194.71	38.541	-10.084	31.81	0.26	14.045	10.083	263.98		-0.91	0.000
194.99	38.492	-9.880	31.86	0.26	13.881	9.911	265.58		-0.91	0.000
195.27	38.443	-9.663	31.91	0.26	13.697	9.744	243.93		-0.91	0.000
195.54	38.410	-9.411	31.94	0.26	13.479	9.574	168.35		-0.91	0.000
195.81	38.365	-9.123	31.98	0.26	13.303	9.386	115.99		-0.91	0.000
196.08	38.320	-8.834	32.03	0.26	13.115	9.194	6.43		-0.91	0.000
196.35	38.278	-8.510	32.07	0.26	12.955	9.013	-49.70		-0.91	0.000
196.64	38.250	-8.161	32.10	0.26	12.805	8.846	-162.10		-0.91	0.000
196.91	38.210	-7.800	32.14	0.26	12.670	8.695	-212.86		-0.91	0.000
197.19	38.172	-7.392	32.18	0.26	12.612	8.562	-297.43		-0.91	0.000
197.47	38.138	-6.983	32.21	0.26	12.487	8.443	-328.02		-0.91	0.000
197.75	38.113	-6.550	32.24	0.26	12.392	8.336	-355.25		-0.91	0.000
198.03	38.081	-6.094	32.27	0.26	12.291	8.238	-347.06		-0.91	0.000
198.30	38.052	-5.625	32.30	0.26	12.218	8.192	-307.89		-0.91	0.000
198.58	38.027	-5.144	32.32	0.26	12.136	8.113	-248.79		-0.91	0.000
198.86	38.010	-4.651	32.34	0.26	12.073	8.037	-210.49		-0.91	0.000
199.14	37.987	-4.135	32.36	0.26	12.016	7.972	-118.00		-0.91	0.000
199.42	37.973	-3.606	32.38	0.26	11.964	7.914	-66.31		-0.91	0.000
199.69	37.954	-3.065	32.40	0.26	11.932	7.867	40.77		-0.91	0.000
199.96	37.945	-2.524	32.41	0.26	11.910	7.827	90.35		-0.91	0.000
200.24	37.934	-1.995	32.42	0.27	11.879	7.794	153.20		-0.91	0.000
200.51	37.929	-1.466	32.42	0.27	11.872	7.771	164.75		-0.91	0.000
200.78	37.922	-0.913	32.43	0.27	11.843	7.748	142.03		-0.91	0.000
201.05	37.920	-0.361	32.43	0.27	11.859	7.733	116.77		-0.91	0.000
201.31	37.919	0.180	32.43	0.27	11.841	7.728	61.62		-0.91	0.000
201.58	37.919	0.721	32.43	0.27	11.836	7.723	40.77		-0.91	0.000
201.84	37.919	1.250	32.43	0.27	11.845	7.721	1.14		-0.91	0.000
202.11	37.919	1.779	32.43	0.27	11.840	7.722	-31.19		-0.91	0.000
202.38	37.920	2.308	32.43	0.27	11.843	7.723	-112.19		-0.91	0.000
202.65	37.933	2.825	32.42	0.27	11.842	7.725	-160.98		-0.91	0.000
202.93	37.948	3.341	32.40	0.26	11.837	7.724	-258.60		-0.91	0.000
203.20	37.968	3.858	32.38	0.26	11.834	7.720	-290.37		-0.91	0.000
203.47	37.977	4.375	32.37	0.26	11.833	7.717	-312.54		-0.91	0.000
203.75	38.006	4.880	32.34	0.26	11.838	7.712	-295.43		-0.91	0.000
204.02	38.031	5.349	32.32	0.26	11.834	7.710	-216.31		-0.91	0.000
204.30	38.059	5.817	32.29	0.26	11.842	7.709	-167.70		-0.91	0.000
204.57	38.079	6.274	32.27	0.26	11.831	7.709	-89.87		-0.91	0.000
204.84	38.113	6.719	32.24	0.26	11.837	7.709	-73.10		-0.91	0.000
205.11	38.148	7.139	32.20	0.26	11.844	7.711	-60.27		-0.91	0.000
205.39	38.170	7.548	32.18	0.26	11.856	7.716	-63.20		-0.91	0.000
205.66	38.210	7.921	32.14	0.26	11.873	7.729	-35.53		-0.91	0.000
205.94	38.251	8.281	32.10	0.26	11.889	7.750	-15.45		-0.91	0.000
206.21	38.292	8.618	32.06	0.26	11.922	7.779	3.13		-0.91	0.000
206.47	38.323	8.930	32.03	0.26	11.969	7.794	0.20		-0.91	0.000
206.75	38.366	9.219	31.98	0.26	12.015	7.832	-24.82		-0.91	0.000
207.02	38.415	9.483	31.93	0.26	12.046	7.878	-38.20		-0.91	0.000
207.29	38.446	9.724	31.90	0.26	12.113	7.932	-65.14		-0.91	0.000
207.56	38.495	9.940	31.86	0.26	12.177	7.995	-82.03		-0.91	0.000
207.84	38.546	10.132	31.80	0.26	12.248	8.063	-98.33		-0.91	0.000
208.11	38.596	10.288	31.75	0.26	12.336	8.143	-94.93		-0.91	0.000
208.39	38.632	10.433	31.72	0.26	12.426	8.230	-84.52		-0.91	0.000
208.67	38.684	10.541	31.67	0.26	12.529	8.332	-79.52		-0.91	0.000
208.94	38.737	10.625	31.61	0.26	12.634	8.440	-51.27		-0.91	0.000
209.22	38.791	10.673	31.56	0.26	12.757	8.497	-34.64		-0.91	0.000
209.49	38.825	10.697	31.52	0.26	12.878	8.625	-1.47		-0.91	0.000
209.76	38.880	10.685	31.47	0.26	12.958	8.765	2.23		-0.91	0.000
210.03	38.932	10.649	31.42	0.26	13.105	8.921	3.13		-0.91	0.000
210.30	38.968	10.589	31.38	0.26	13.271	9.081	-2.27		-0.91	0.000
210.57	39.020	10.505	31.33	0.26	13.427	9.250	8.81		-0.91	0.000
210.85	39.072	10.385	31.28	0.26	13.584	9.420	20.68		-0.91	0.000
211.12	39.107	10.240	31.24	0.26	13.770	9.595	57.37		-0.91	0.000
211.39	39.157	10.072	31.19	0.26	13.977	9.779	71.61		-0.91	0.000
211.66	39.209	9.868	31.14	0.25	14.218	9.875	54.13		-0.91	0.000
211.93	39.256	9.651	31.09	0.25	14.330	10.090	30.64		-0.91	0.000
212.21	39.288	9.399	31.06	0.25	14.560	10.322	-41.23		-0.91	0.000
212.48	39.334	9.123	31.02	0.25	14.782	10.563	-68.18		-0.91	0.000
212.75	39.380	8.822	30.97	0.25	14.997	10.800	-102.09		-0.91	0.000
213.03	39.410	8.510	30.94	0.25	15.211	11.027	-115.47		-0.91	0.000
213.30	39.448	8.161	30.90	0.25	15.395	11.252	-120.49		-0.91	0.000
213.58	39.489	7.788	30.86	0.25	15.592	11.460	-128.00		-0.91	0.000
213.85	39.528	7.404	30.82	0.25	15.772	11.665	-150.44		-0.91	0.000
214.13	39.551	6.983	30.80	0.25	15.945	11.854	-203.29		-0.91	0.000
214.40	39.584	6.562	30.77	0.25	16.091	12.033	-222.31		-0.91	0.000
214.68	39.616	6.118	30.73	0.25	16.180	12.118	-250.69		-0.91	0.000
214.95	39.643	5.649	30.71	0.25	16.315	12.277	-255.80		-0.91	0.000
215.23	39.664	5.168	30.69	0.25	16.436	12.427	-253.70		-0.91	0.000
215.50	39.688	4.675	30.66	0.25	16.545	12.562	-253.09		-0.91	0.000
215.78	39.709	4.171	30.64	0.25	16.642	12.683	-253.25		-0.91	0.000
216.05	39.728	3.654	30.62	0.25	16.725	12.789	-260.04		-0.91	0.000
216.32	39.737	3.137	30.61	0.25	16.816	12.879	-278.68		-0.91	0.000
216.60	39.754	2.608	30.60	0.25	16.864	12.962	-293.00		-0.91	0.000
216.86	39.764	2.067	30.59	0.25	16.903	13.029	-293.22		-0.91	0.000
217.13	39.766	1.526	30.58	0.25	16.946	13.085	-279.15		-0.91	0.000
217.41	39.774	0.986	30.58	0.25	16.981	13.109	-238.22		-0.91	0.000
217.68	39.777	0.445	30.57	0.25	16.990	13.151	-211.42		-0.91	0.000
217.95	39.778	-0.096	30.57	0.25	17.006	13.176	-164.50		-0.91	0.000
218.22	39.778	-0.637	30.57	0.25	17.014	13.192	-139.76		-0.91	0.000
218.48	39.778	-1.178	30.57	0.25	17.014	13.203	-105.77		-0.91	0.000
218.76	39.778	-1.719	30.57	0.25	17.018	13.207	-96.83		-0.91	0.000
219.03	39.778	-2.248	30.57	0.25	17.017	13.208	-96.12		-0.91	0.000
219.30	39.765	-2.788	30.58	0.25	17.016	13.205	-101.09		-0.91	0.000
219.58	39.746	-3.305	30.60	0.25	17.002	13.204	-119.47		-0.91	0.000
219.86	39.737	-3.822	30.61	0.25	16.990	13.201	-134.01		-0.91	0.000
220.14	39.714	-4.351	30.64	0.25	16.969	13.200	-164.02		-0.91	0.000
220.41	39.691	-4.856	30.66	0.25	16.963	13.193	-180.26		-0.91	0.000
220.69	39.665	-5.349	30.68	0.25	16.952	13.184	-199.00		-0.91	0.000
220.97	39.637	-5.817	30.71	0.25	16.940	13.177	-201.39		-0.91	0.000
221.25	39.615	-6.286	30.73	0.25	16.938	13.170	-230.23		-0.91	0.000
221.53	39.584	-6.731	30.77	0.25	16.923	13.163	-243.01		-0.91	0.000
221.81	39.548	-7.163	30.80	0.25	16.896	13.153	-263.45		-0.91	0.000
222.08	39.511	-7.572	30.84	0.25	16.831	13.137	-261.51		-0.91	0.000
222.36	39.486	-7.957	30.86	0.25	16.764	13.089	-236.18		-0.91	0.000
222.64	39.445	-8.317	30.91	0.25	16.677	13.015	-182.97		-0.91	0.000
222.92	39.402	-8.654	30.95	0.25	16.579	12.915	-142.11		-0.91	0.000
223.19	39.356	-8.978	30.99	0.25	16.521	12.797	-63.07		-0.91	0.000
223.47	39.329	-9.267	31.02	0.25	16.402	12.660	-25.24		-0.91	0.000
223.74	39.282	-9.531	31.07	0.25	16.261	12.513	28.47		-0.91	0.000
224.02	39.232	-9.772	31.12	0.25	16.124	12.350	52.37		-0.91	0.000
224.29	39.182	-9.988	31.17	0.25	15.978	12.262	82.55		-0.91	0.000
224.57	39.148	-10.168	31.20	0.26	15.822	12.089	99.69		-0.91	0.000
224.84	39.097	-10.325	31.25	0.26	15.656	11.910	141.19		-0.91	0.000
225.12	39.046	-10.457	31.30	0.26	15.495	11.722	165.58		-0.91	0.000
225.39	38.992	-10.553	31.36	0.26	15.328	11.532	208.58		-0.91	0.000
225.66	38.957	-10.637	31.39	0.26	15.151	11.343	212.64		-0.91	0.000
225.94	38.905	-10.673	31.45	0.26	15.063	11.148	179.17		-0.91	0.000
226.21	38.851	-10.697	31.50	0.26	14.887	10.955	156.97		-0.91	0.000
226.49	38.815	-10.685	31.53	0.26	14.726	10.763	98.53		-0.91	0.000
226.76	38.763	-10.649	31.59	0.26	14.560	10.581	63.31		-0.91	0.000
227.03	38.709	-10.577	31.64	0.26	14.385	10.492	6.61		-0.91	0.000
227.31	38.656	-10.481	31.69	0.26	14.214	10.308	-20.42		-0.91	0.000
227.59	38.622	-10.361	31.73	0.26	14.046	10.124	-71.53		-0.91	0.000
227.86	38.570	-10.204	31.78	0.26	13.885	9.944	-105.60		-0.91	0.000
228.14	38.519	-10.024	31.83	0.26	13.728	9.767	-186.20		-0.91	0.000
228.42	38.470	-9.820	31.88	0.26	13.556	9.599	-253.78		-0.91	0.000
228.70	38.438	-9.567	31.91	0.26	13.346	9.433	-275.37		-0.91	0.000
228.98	38.391	-9.315	31.96	0.26	13.154	9.255	-314.75		-0.91	0.000
229.26	38.343	-9.014	32.01	0.26	13.075	9.065	-326.13		-0.91	0.000
229.53	38.301	-8.702	32.05	0.26	12.889	8.884	-313.65		-0.91	0.000
229.81	38.273	-8.365	32.08	0.26	12.723	8.717	-293.37		-0.91	0.000
230.09	38.232	-8.017	32.12	0.26	12.582	8.564	-248.18		-0.91	0.000
230.36	38.192	-7.632	32.16	0.26	12.452	8.423	-229.73		-0.91	0.000
230.64	38.156	-7.224	32.19	0.26	12.336	8.295	-193.88		-0.91	0.000
230.92	38.120	-6.803	32.23	0.26	12.227	8.187	-171.36		-0.91	0.000
231.20	38.100	-6.358	32.25	0.26	12.132	8.087	-147.55		-0.91	0.000
231.47	38.068	-5.901	32.28	0.26	12.057	8.039	-132.86		-0.91	0.000
231.76	38.040	-5.421	32.31	0.26	11.979	7.955	-89.40		-0.91	0.000
232.03	38.015	-4.940	32.33	0.26	11.912	7.880	-48.12		-0.91	0.000
232.31	38.000	-4.423	32.35	0.26	11.855	7.810	-26.79		-0.91	0.000
232.58	37.981	-3.918	32.37	0.26	11.825	7.749	1.75		-0.91	0.000
232.85	37.964	-3.401	32.39	0.26	11.777	7.700	16.47		-0.91	0.000
233.12	37.954	-2.873	32.40	0.26	11.742	7.658	50.17		-0.91	0.000
233.39	37.938	-2.344	32.41	0.26	11.719	7.621	59.83		-0.91	0.000
233.67	37.931	-1.803	32.42	0.27	11.706	7.595	56.41		-0.91	0.000
233.94	37.922	-1.262	32.43	0.27	11.690	7.568	50.94		-0.91	0.000
234.21	37.920	-0.721	32.43	0.27	11.676	7.562	43.66		-0.91	0.000
234.47	37.919	-0.168	32.43	0.27	11.673	7.546	35.18		-0.91	0.000
234.73	37.919	0.361	32.43	0.27	11.670	7.539	15.77		-0.91	0.000
235.00	37.919	0.901	32.43	0.27	11.666	7.537	-19.16		-0.91	0.000
235.27	37.919	1.418	32.43	0.27	11.668	7.535	-45.97		-0.91	0.000
235.54	37.919	1.959	32.43	0.27	11.672	7.536	-111.98		-0.91	0.000
235.81	37.920	2.488	32.43	0.27	11.665	7.539	-150.29		-0.91	0.000
236.08	37.938	3.017	32.41	0.26	11.667	7.539	-226.55		-0.91	0.000
236.36	37.956	3.534	32.39	0.26	11.658	7.539	-243.48		-0.91	0.000
236.63	37.968	4.050	32.38	0.26	11.663	7.534	-239.50		-0.91	0.000
236.90	37.990	4.555	32.36	0.26	11.662	7.529	-225.81		-0.91	0.000
237.18	38.015	5.048	32.33	0.26	11.658	7.526	-214.53		-0.91	0.000
237.45	38.042	5.517	32.31	0.26	11.665	7.524	-209.48		-0.91	0.000
237.73	38.060	5.986	32.29	0.26	11.666	7.524	-203.22		-0.91	0.000
238.01	38.093	6.442	32.26	0.26	11.664	7.524	-178.05		-0.91	0.000
238.28	38.125	6.875	32.22	0.26	11.664	7.525	-151.52		-0.91	0.000
238.56	38.161	7.296	32.19	0.26	11.676	7.527	-93.47		-0.91	0.000
238.83	38.187	7.692	32.16	0.26	11.690	7.539	-76.88		-0.91	0.000
239.11	38.227	8.065	32.12	0.26	11.711	7.551	-83.73		-0.91	0.000
239.38	38.269	8.413	32.08	0.26	11.739	7.562	-105.43		-0.91	0.000
239.66	38.296	8.750	32.05	0.26	11.755	7.587	-158.21		-0.91	0.000
239.93	38.341	9.062	32.01	0.26	11.795	7.619	-176.79		-0.91	0.000
240.21	38.387	9.339	31.96	0.26	11.839	7.657	-212.75		-0.91	0.000
240.48	38.433	9.591	31.92	0.26	11.893	7.706	-236.94		-0.91	0.000
240.76	38.468	9.832	31.88	0.26	11.967	7.761	-259.84		-0.91	0.000
241.03	38.515	10.036	31.83	0.26	12.033	7.823	-260.72		-0.91	0.000
241.31	38.568	10.216	31.78	0.26	12.107	7.892	-250.03		-0.91	0.000
241.58	38.619	10.361	31.73	0.26	12.187	7.971	-238.21		-0.91	0.000
241.86	38.652	10.481	31.70	0.26	12.285	8.056	-228.74		-0.91	0.000
242.13	38.706	10.577	31.64	0.26	12.389	8.156	-230.35		-0.91	0.000
242.41	38.759	10.649	31.59	0.26	12.430	8.208	-239.68		-0.91	0.000
242.68	38.813	10.685	31.54	0.26	12.545	8.323	-243.10		-0.91	0.000
242.95	38.847	10.697	31.50	0.26	12.681	8.449	-231.79		-0.91	0.000
243.23	38.901	10.673	31.45	0.26	12.822	8.588	-210.52		-0.91	0.000
243.50	38.955	10.625	31.40	0.26	12.949	8.742	-178.21		-0.91	0.000
243.77	38.989	10.553	31.36	0.26	13.093	8.905	-177.43		-0.91	0.000
244.05	39.042	10.445	31.31	0.26	13.268	9.072	-199.07		-0.91	0.000
244.32	39.095	10.313	31.26	0.26	13.450	9.239	-206.49		-0.91	0.000
244.59	39.145	10.156	31.21	0.26	13.632	9.422	-197.69		-0.91	0.000
244.87	39.178	9.976	31.17	0.25	13.852	9.613	-185.74		-0.91	0.000
245.14	39.229	9.760	31.12	0.25	13.982	9.828	-163.48		-0.91	0.000
245.42	39.277	9.519	31.07	0.25	14.205	9.943	-163.52		-0.91	0.000
245.69	39.309	9.255	31.04	0.25	14.435	10.185	-172.14		-0.91	0.000
245.97	39.355	8.966	31.00	0.25	14.667	10.427	-225.64		-0.91	0.000
246.24	39.397	8.654	30.95	0.25	14.876	10.666	-254.68		-0.91	0.000
246.52	39.441	8.317	30.91	0.25	15.079	10.898	-328.96		-0.91	0.000
246.79	39.466	7.957	30.88	0.25	15.271	11.117	-369.38		-0.91	0.000
247.07	39.505	7.572	30.85	0.25	15.459	11.329	-445.05		-0.91	0.000
247.34	39.543	7.163	30.81	0.25	15.641	11.529	-485.10		-0.91	0.000
247.62	39.578	6.743	30.77	0.25	15.807	11.715	-574.63		-0.91	0.000
247.89	39.598	6.310	30.75	0.25	15.883	11.893	-609.34		-0.91	0.000
248.17	39.628	5.853	30.72	0.25	16.017	12.056	-645.56		-0.91	0.000
248.45	39.656	5.373	30.69	0.25	16.165	12.204	-639.00		-0.91	0.000
248.72	39.680	4.892	30.67	0.25	16.278	12.277	-576.78		-0.91	0.000
248.99	39.697	4.387	30.65	0.25	16.386	12.409	-524.29		-0.91	0.000
249.27	39.715	3.882	30.63	0.25	16.462	12.524	-401.55		-0.91	0.000
249.55	39.732	3.353	30.62	0.25	16.559	12.624	-337.94		-0.91	0.000
249.82	39.748	2.825	30.60	0.25	16.636	12.715	-227.96		-0.91	0.000
250.10	39.757	2.284	30.59	0.25	16.676	12.792	-190.74		-0.91	0.000
250.37	39.768	1.731	30.58	0.25	16.721	12.854	-124.16		-0.91	0.000
250.64	39.770	1.190	30.58	0.25	16.753	12.908	-94.09		-0.91	0.000
250.91	39.777	0.649	30.57	0.25	16.779	12.948	-31.17		-0.91	0.000
251.17	39.777	0.096	30.57	0.25	16.797	12.984	-14.64		-0.91	0.000
251.44	39.777	-0.433	30.57	0.25	16.795	12.995	-27.99		-0.91	0.000
251.71	39.777	-0.950	30.57	0.25	16.807	13.009	-59.50		-0.91	0.000
251.98	39.777	-1.502	30.57	0.25	16.809	13.013	-140.68		-0.91	0.000
252.25	39.777	-2.043	30.57	0.25	16.813	13.015	-175.08		-0.91	0.000
252.52	39.764	-2.560	30.59	0.25	16.817	13.014	-232.70		-0.91	0.000
252.79	39.756	-3.089	30.59	0.25	16.807	13.013	-251.14		-0.91	0.000
253.07	39.737	-3.618	30.61	0.25	16.799	13.008	-287.51		-0.91	0.000
253.34	39.716	-4.123	30.63	0.25	16.774	13.003	-298.09		-0.91	0.000
253.62	39.705	-4.627	30.65	0.25	16.758	12.998	-293.68		-0.91	0.000
253.90	39.679	-5.132	30.67	0.25	16.749	12.990	-280.06		-0.91	0.000
254.18	39.654	-5.613	30.70	0.25	16.746	12.986	-221.88		-0.91	0.000
254.45	39.624	-6.094	30.73	0.25	16.740	12.978	-180.50		-0.91	0.000
254.73	39.601	-6.538	30.75	0.25	16.729	12.970	-107.11		-0.91	0.000
255.01	39.568	-6.959	30.78	0.25	16.715	12.964	-90.95		-0.91	0.000
255.29	39.533	-7.380	30.82	0.25	16.655	12.954	-95.64		-0.91	0.000
255.57	39.495	-7.764	30.86	0.25	16.590	12.924	-100.92		-0.91	0.000
255.85	39.454	-8.149	30.90	0.25	16.506	12.862	-94.14		-0.91	0.000
256.12	39.425	-8.510	30.92	0.25	16.463	12.771	-84.19		-0.91	0.000
256.41	39.383	-8.834	30.97	0.25	16.365	12.659	-91.78		-0.91	0.000
256.68	39.338	-9.135	31.01	0.25	16.239	12.530	-111.21		-0.91	0.000
256.96	39.291	-9.423	31.06	0.25	16.115	12.382	-138.07		-0.91	0.000
257.24	39.260	-9.675	31.09	0.25	15.967	12.224	-197.40		-0.91	0.000
257.51	39.210	-9.892	31.14	0.25	15.821	12.055	-223.86		-0.91	0.000
257.79	39.159	-10.096	31.19	0.26	15.670	11.872	-243.93		-0.91	0.000
258.07	39.110	-10.264	31.24	0.26	15.509	11.687	-244.98		-0.91	0.000
258.35	39.075	-10.409	31.27	0.26	15.344	11.595	-244.09		-0.91	0.000
258.63	39.022	-10.517	31.33	0.26	15.170	11.403	-240.38		-0.91	0.000
258.91	38.970	-10.613	31.38	0.26	15.005	11.210	-239.67		-0.91	0.000
259.19	38.918	-10.661	31.43	0.26	14.828	11.016	-241.09		-0.91	0.000
259.46	38.863	-10.697	31.49	0.26	14.657	10.820	-248.82		-0.91	0.000
259.74	38.827	-10.685	31.52	0.26	14.489	10.620	-256.24		-0.91	0.000
260.02	38.774	-10.661	31.58	0.26	14.416	10.430	-258.00		-0.91	0.000
260.30	38.722	-10.601	31.63	0.26	14.243	10.246	-275.73		-0.91	0.000
260.57	38.669	-10.505	31.68	0.26	14.074	10.065	-272.78		-0.91	0.000
260.85	38.634	-10.385	31.72	0.26	13.907	9.882	-257.65		-0.91	0.000
261.13	38.582	-10.240	31.77	0.26	13.739	9.699	-242.63		-0.91	0.000
261.41	38.532	-10.072	31.82	0.26	13.589	9.522	-231.69		-0.91	0.000
261.68	38.481	-9.868	31.87	0.26	13.423	9.358	-231.70		-0.91	0.000
261.96	38.448	-9.627	31.90	0.26	13.229	9.194	-210.67		-0.91	0.000
262.23	38.402	-9.387	31.95	0.26	13.035	9.015	-185.41		-0.91	0.000
262.51	38.356	-9.099	31.99	0.26	12.851	8.923	-134.40		-0.91	0.000
262.79	38.310	-8.798	32.04	0.26	12.668	8.739	-112.27		-0.91	0.000
263.07	38.282	-8.462	32.07	0.26	12.522	8.567	-110.89		-0.91	0.000
263.35	38.241	-8.113	32.11	0.26	12.453	8.406	-94.84		-0.91	0.000
263.63	38.202	-7.740	32.15	0.26	12.323	8.264	-91.49		-0.91	0.000
263.91	38.164	-7.332	32.19	0.26	12.212	8.139	-77.16		-0.91	0.000
264.18	38.128	-6.911	32.22	0.26	12.095	8.025	-62.35		-0.91	0.000
264.45	38.107	-6.478	32.24	0.26	12.014	7.925	-25.90		-0.91	0.000
264.73	38.077	-6.022	32.27	0.26	11.920	7.834	-13.91		-0.91	0.000
265.01	38.046	-5.565	32.30	0.26	11.847	7.749	-8.16		-0.91	0.000
265.27	38.028	-5.084	32.32	0.26	11.778	7.678	-14.52		-0.91	0.000
265.55	38.006	-4.579	32.34	0.26	11.722	7.610	11.44		-0.91	0.000
265.82	37.983	-4.087	32.37	0.26	11.670	7.580	43.60		-0.91	0.000
266.10	37.969	-3.570	32.38	0.26	11.628	7.525	100.09		-0.91	0.000
266.37	37.957	-3.053	32.39	0.26	11.616	7.481	110.91		-0.91	0.000
266.65	37.941	-2.512	32.41	0.26	11.579	7.444	113.34		-0.91	0.000
266.91	37.931	-1.983	32.42	0.27	11.562	7.411	104.20		-0.91	0.000
267.19	37.929	-1.430	32.42	0.27	11.549	7.389	86.43		-0.91	0.000
267.46	37.922	-0.889	32.43	0.27	11.525	7.368	82.58		-0.91	0.000
267.73	37.919	-0.337	32.43	0.27	11.524	7.354	79.29		-0.91	0.000
268.00	37.918	0.204	32.43	0.27	11.515	7.349	78.30		-0.91	0.000
268.27	37.918	0.757	32.43	0.27	11.528	7.344	42.69		-0.91	0.000
268.53	37.918	1.286	32.43	0.27	11.523	7.343	6.42		-0.92	0.000
268.80	37.918	1.827	32.43	0.27	11.520	7.343	-69.96		-0.92	0.000
269.06	37.918	2.344	32.43	0.27	11.524	7.345	-95.18		-0.92	0.000
269.34	37.933	2.861	32.42	0.27	11.515	7.345	-107.01		-0.92	0.000
269.61	37.951	3.377	32.40	0.26	11.516	7.345	-115.42		-0.92	0.000
269.88	37.961	3.906	32.39	0.26	11.524	7.341	-134.02		-0.92	0.000
270.15	37.984	4.411	32.37	0.26	11.526	7.338	-155.91		-0.92	0.000
270.43	38.009	4.904	32.34	0.26	11.524	7.334	-198.44		-0.92	0.000
270.70	38.023	5.373	32.33	0.26	11.523	7.333	-226.73		-0.92	0.000
270.99	38.054	5.865	32.30	0.26	11.528	7.334	-276.50		-0.92	0.000
271.25	38.084	6.310	32.27	0.26	11.527	7.336	-278.89		-0.92	0.000
271.53	38.118	6.755	32.23	0.26	11.528	7.337	-261.61		-0.92	0.000
271.81	38.139	7.163	32.21	0.26	11.541	7.337	-243.38		-0.92	0.000
272.09	38.178	7.572	32.17	0.26	11.556	7.343	-214.93		-0.92	0.000
272.37	38.215	7.957	32.13	0.26	11.570	7.359	-188.55		-0.92	0.000
272.65	38.256	8.329	32.09	0.26	11.593	7.378	-173.64		-0.92	0.000
272.92	38.284	8.666	32.07	0.26	11.639	7.403	-153.71		-0.92	0.000
273.20	38.329	8.978	32.02	0.26	11.683	7.435	-154.58		-0.92	0.000
273.48	38.374	9.279	31.98	0.26	11.718	7.477	-157.65		-0.92	0.000
273.75	38.423	9.543	31.93	0.26	11.778	7.523	-146.73		-0.92	0.000
274.03	38.454	9.772	31.90	0.26	11.810	7.576	-116.01		-0.92	0.000
274.30	38.502	9.988	31.85	0.26	11.869	7.639	-99.45		-0.92	0.000
274.57	38.554	10.180	31.80	0.26	11.935	7.668	-92.34		-0.92	0.000
274.85	38.604	10.325	31.75	0.26	12.013	7.737	-108.42		-0.92	0.000
275.12	38.639	10.457	31.71	0.26	12.101	7.816	-149.50		-0.92	0.000
275.39	38.692	10.565	31.66	0.26	12.202	7.903	-177.73		-0.92	0.000
275.67	38.746	10.637	31.60	0.26	12.302	8.004	-197.40		-0.92	0.000
275.94	38.798	10.673	31.55	0.26	12.404	8.112	-190.04		-0.92	0.000
276.22	38.833	10.697	31.52	0.26	12.531	8.229	-147.45		-0.92	0.000
276.48	38.887	10.685	31.46	0.26	12.594	8.359	-129.56		-0.92	0.000
276.76	38.939	10.637	31.41	0.26	12.732	8.507	-128.52		-0.92	0.000
277.03	38.975	10.577	31.37	0.26	12.869	8.667	-130.60		-0.92	0.000
277.31	39.028	10.481	31.32	0.26	13.011	8.750	-125.00		-0.92	0.000
277.59	39.079	10.361	31.27	0.26	13.178	8.920	-107.95		-0.92	0.000
277.86	39.132	10.204	31.22	0.26	13.352	9.092	-59.05		-0.92	0.000
278.13	39.166	10.024	31.18	0.25	13.564	9.275	-44.28		-0.92	0.000
278.40	39.214	9.820	31.14	0.25	13.787	9.470	-42.02		-0.92	0.000
278.67	39.264	9.579	31.09	0.25	14.028	9.696	-59.13		-0.92	0.000
278.95	39.296	9.327	31.05	0.25	14.143	9.935	-85.86		-0.92	0.000
279.22	39.339	9.050	31.01	0.25	14.359	10.178	-89.85		-0.92	0.000
279.50	39.386	8.738	30.96	0.25	14.589	10.414	-66.71		-0.92	0.000
279.77	39.428	8.413	30.92	0.25	14.792	10.647	-51.98		-0.92	0.000
280.05	39.455	8.053	30.90	0.25	15.001	10.873	-33.45		-0.92	0.000
280.32	39.495	7.680	30.86	0.25	15.195	10.982	-31.75		-0.92	0.000
280.59	39.533	7.284	30.82	0.25	15.371	11.194	-42.46		-0.92	0.000
280.86	39.568	6.875	30.78	0.25	15.544	11.390	-56.72		-0.92	0.000
281.14	39.588	6.442	30.76	0.25	15.699	11.573	-89.37		-0.92	0.000
281.41	39.620	5.998	30.73	0.25	15.858	11.750	-129.58		-0.92	0.000
281.69	39.647	5.529	30.70	0.25	15.930	11.911	-158.67		-0.92	0.000
281.97	39.665	5.048	30.68	0.25	16.056	12.060	-253.33		-0.92	0.000
282.24	39.689	4.555	30.66	0.25	16.173	12.194	-308.37		-0.92	0.000
282.53	39.710	4.038	30.64	0.25	16.270	12.316	-395.93		-0.92	0.000
282.80	39.727	3.522	30.62	0.25	16.362	12.421	-418.62		-0.92	0.000
283.07	39.738	2.981	30.61	0.25	16.437	12.515	-443.83		-0.92	0.000
283.35	39.754	2.440	30.60	0.25	16.496	12.557	-444.59		-0.92	0.000
283.61	39.766	1.899	30.58	0.25	16.538	12.628	-424.22		-0.92	0.000
283.89	39.769	1.358	30.58	0.25	16.582	12.686	-398.81		-0.92	0.000
284.16	39.771	0.817	30.58	0.25	16.611	12.737	-332.66		-0.92	0.000
284.43	39.778	0.276	30.57	0.25	16.642	12.770	-294.16		-0.92	0.000
284.71	39.778	-0.264	30.57	0.25	16.645	12.802	-193.04		-0.92	0.000
284.98	39.778	-0.817	30.57	0.25	16.653	12.820	-137.57		-0.92	0.000
285.25	39.778	-1.370	30.57	0.25	16.667	12.828	-61.59		-0.92	0.000
285.52	39.778	-1.911	30.57	0.25	16.657	12.830	-53.16		-0.92	0.000
285.78	39.770	-2.440	30.58	0.25	16.663	12.829	-60.08		-0.92	0.000
286.06	39.761	-2.969	30.59	0.25	16.654	12.828	-73.43		-0.92	0.000
286.34	39.745	-3.486	30.61	0.25	16.637	12.827	-106.88		-0.92	0.000
286.61	39.727	-4.002	30.62	0.25	16.616	12.827	-118.22		-0.92	0.000
286.89	39.702	-4.507	30.65	0.25	16.609	12.821	-126.42		-0.92	0.000
287.17	39.687	-5.000	30.66	0.25	16.604	12.815	-124.43		-0.92	0.000
287.45	39.659	-5.493	30.69	0.25	16.598	12.807	-127.18		-0.92	0.000
287.73	39.629	-5.974	30.72	0.25	16.593	12.800	-143.91		-0.92	0.000
288.01	39.598	-6.430	30.75	0.25	16.580	12.792	-196.76		-0.92	0.000
288.29	39.577	-6.875	30.77	0.25	16.563	12.785	-206.71		-0.92	0.000
288.57	39.541	-7.296	30.81	0.25	16.534	12.773	-197.52		-0.92	0.000
288.84	39.502	-7.704	30.85	0.25	16.466	12.743	-168.54		-0.92	0.000
289.12	39.464	-8.077	30.89	0.25	16.386	12.679	-153.95		-0.92	0.000
289.40	39.436	-8.438	30.91	0.25	16.292	12.586	-126.80		-0.92	0.000
289.67	39.392	-8.762	30.96	0.25	16.184	12.474	-117.63		-0.92	0.000
289.95	39.347	-9.075	31.00	0.25	16.066	12.409	-127.26		-0.92	0.000
290.22	39.302	-9.351	31.05	0.25	15.931	12.270	-132.32		-0.92	0.000
290.50	39.270	-9.615	31.08	0.25	15.859	12.115	-130.75		-0.92	0.000
290.77	39.220	-9.844	31.13	0.25	15.709	11.946	-112.76		-0.92	0.000
291.05	39.172	-10.048	31.18	0.25	15.561	11.767	-64.97		-0.92	0.000
291.33	39.122	-10.216	31.23	0.26	15.393	11.582	-53.19		-0.92	0.000
291.61	39.087	-10.373	31.26	0.26	15.231	11.394	-62.55		-0.92	0.000
291.88	39.036	-10.493	31.31	0.26	15.064	11.198	-86.76		-0.92	0.000
292.16	38.982	-10.589	31.37	0.26	14.888	11.002	-143.89		-0.92	0.000
292.44	38.929	-10.649	31.42	0.26	14.717	10.803	-170.47		-0.92	0.000
292.72	38.877	-10.685	31.47	0.26	14.547	10.604	-206.36		-0.92	0.000
292.99	38.841	-10.697	31.51	0.26	14.374	10.407	-225.53		-0.92	0.000
293.28	38.787	-10.673	31.56	0.26	14.207	10.211	-225.95		-0.92	0.000
293.56	38.733	-10.625	31.62	0.26	14.034	10.025	-225.28		-0.92	0.000
293.83	38.681	-10.541	31.67	0.26	13.864	9.841	-231.46		-0.92	0.000
294.11	38.645	-10.421	31.71	0.26	13.783	9.749	-230.13		-0.92	0.000
294.38	38.593	-10.288	31.76	0.26	13.613	9.568	-217.54		-0.92	0.000
294.66	38.542	-10.120	31.81	0.26	13.460	9.390	-177.85		-0.92	0.000
294.94	38.492	-9.928	31.86	0.26	13.313	9.218	-149.68		-0.92	0.000
295.22	38.461	-9.700	31.89	0.26	13.149	9.058	-127.71		-0.92	0.000
295.49	38.413	-9.459	31.94	0.26	12.937	8.900	-122.06		-0.92	0.000
295.77	38.366	-9.171	31.98	0.26	12.744	8.727	-141.74		-0.92	0.000
296.04	38.322	-8.882	32.03	0.26	12.568	8.544	-165.13		-0.92	0.000
296.32	38.292	-8.558	32.06	0.26	12.406	8.372	-218.49		-0.92	0.000
296.60	38.248	-8.221	32.10	0.26	12.259	8.214	-237.44		-0.92	0.000
296.88	38.210	-7.837	32.14	0.26	12.141	8.073	-257.82		-0.92	0.000
297.16	38.172	-7.452	32.18	0.26	12.034	7.947	-259.48		-0.92	0.000
297.44	38.148	-7.031	32.20	0.26	11.924	7.839	-259.59		-0.92	0.000
297.72	38.113	-6.599	32.24	0.26	11.888	7.743	-262.60		-0.92	0.000
297.99	38.082	-6.142	32.27	0.26	11.795	7.697	-253.65		-0.92	0.000
298.27	38.054	-5.685	32.30	0.26	11.708	7.612	-247.88		-0.92	0.000
298.55	38.036	-5.204	32.31	0.26	11.646	7.535	-244.22		-0.92	0.000
298.82	38.010	-4.712	32.34	0.26	11.582	7.465	-227.60		-0.92	0.000
299.10	37.988	-4.207	32.36	0.26	11.536	7.405	-211.45		-0.92	0.000
299.38	37.969	-3.690	32.38	0.26	11.493	7.353	-173.93		-0.92	0.000
299.65	37.959	-3.161	32.39	0.26	11.459	7.310	-161.03		-0.92	0.000
299.92	37.943	-2.620	32.41	0.26	11.430	7.273	-150.23		-0.92	0.000
300.19	37.933	-2.079	32.42	0.27	11.405	7.244	-157.00		-0.92	0.000
300.47	37.923	-1.538	32.43	0.27	11.398	7.220	-198.52		-0.92	0.000
300.74	37.920	-0.998	32.43	0.27	11.373	7.206	-232.97		-0.92	0.000
301.01	37.918	-0.445	32.43	0.27	11.380	7.190	-301.93		-0.92	0.000
301.28	37.918	0.096	32.43	0.27	11.381	7.186	-327.26		-0.92	0.000
301.55	37.918	0.649	32.43	0.27	11.382	7.183	-346.04		-0.92	0.000
301.82	37.918	1.178	32.43	0.27	11.388	7.182	-344.95		-0.92	0.000
302.09	37.918	1.719	32.43	0.27	11.382	7.186	-358.13		-0.92	0.000
302.35	37.918	2.248	32.43	0.27	11.384	7.188	-371.57		-0.92	0.000
302.63	37.927	2.776	32.42	0.27	11.378	7.189	-418.02		-0.92	0.000
302.90	37.942	3.293	32.41	0.26	11.374	7.189	-447.26		-0.92	0.000
303.18	37.961	3.810	32.39	0.26	11.370	7.185	-469.74		-0.92	0.000
303.45	37.978	4.327	32.37	0.26	11.375	7.181	-454.06		-0.92	0.000
303.73	38.000	4.832	32.35	0.26	11.381	7.178	-371.34		-0.92	0.000
304.00	38.025	5.313	32.32	0.26	11.379	7.176	-316.54		-0.92	0.000
304.28	38.055	5.793	32.30	0.26	11.381	7.177	-207.39		-0.92	0.000
304.55	38.075	6.250	32.27	0.26	11.378	7.178	-166.63		-0.92	0.000
304.82	38.109	6.695	32.24	0.26	11.383	7.179	-86.21		-0.92	0.000
305.09	38.142	7.103	32.21	0.26	11.389	7.180	-48.90		-0.92	0.000
305.37	38.166	7.512	32.18	0.26	11.400	7.187	41.77		-0.92	0.000
305.64	38.205	7.897	32.15	0.26	11.407	7.200	92.93		-0.92	0.000
305.91	38.247	8.257	32.10	0.26	11.433	7.219	160.38		-0.92	0.000
306.19	38.289	8.594	32.06	0.26	11.463	7.246	177.68		-0.92	0.000
306.46	38.316	8.906	32.03	0.26	11.491	7.260	186.06		-0.92	0.000
306.74	38.363	9.195	31.99	0.26	11.544	7.293	165.58		-0.92	0.000
307.01	38.410	9.471	31.94	0.26	11.595	7.334	140.59		-0.92	0.000
307.28	38.441	9.712	31.91	0.26	11.650	7.382	72.05		-0.92	0.000
307.55	38.489	9.928	31.86	0.26	11.704	7.438	33.37		-0.92	0.000
307.82	38.541	10.120	31.81	0.26	11.742	7.497	-59.79		-0.92	0.000
308.09	38.574	10.288	31.78	0.26	11.816	7.562	-101.33		-0.92	0.000
308.37	38.627	10.421	31.72	0.26	11.887	7.635	-185.05		-0.92	0.000
308.64	38.679	10.529	31.67	0.26	11.967	7.718	-206.16		-0.92	0.000
308.92	38.731	10.613	31.62	0.26	12.058	7.807	-243.50		-0.92	0.000
309.20	38.766	10.673	31.58	0.26	12.166	7.858	-262.87		-0.92	0.000
309.47	38.820	10.697	31.53	0.26	12.270	7.963	-317.96		-0.92	0.000
309.75	38.873	10.685	31.48	0.26	12.394	8.084	-336.96		-0.92	0.000
310.02	38.927	10.661	31.42	0.26	12.525	8.221	-336.37		-0.92	0.000
310.30	38.963	10.601	31.39	0.26	12.668	8.367	-320.09		-0.92	0.000
310.57	39.016	10.505	31.33	0.26	12.726	8.530	-280.90		-0.92	0.000
310.84	39.066	10.385	31.28	0.26	12.885	8.694	-270.25		-0.92	0.000
311.12	39.119	10.240	31.23	0.26	13.063	8.867	-290.88		-0.92	0.000
311.39	39.152	10.072	31.20	0.26	13.242	9.049	-310.83		-0.92	0.000
311.66	39.204	9.880	31.15	0.25	13.473	9.247	-331.87		-0.92	0.000
311.94	39.251	9.651	31.10	0.25	13.701	9.473	-322.83		-0.92	0.000
312.21	39.283	9.399	31.07	0.25	13.934	9.591	-271.67		-0.92	0.000
312.49	39.329	9.123	31.02	0.25	14.148	9.838	-231.80		-0.92	0.000
312.77	39.375	8.822	30.97	0.25	14.374	10.081	-161.77		-0.92	0.000
313.04	39.418	8.498	30.93	0.25	14.585	10.320	-128.79		-0.92	0.000
313.32	39.446	8.137	30.90	0.25	14.689	10.554	-114.45		-0.92	0.000
313.59	39.487	7.776	30.86	0.25	14.896	10.778	-106.57		-0.92	0.000
313.87	39.523	7.380	30.83	0.25	15.076	10.992	-69.62		-0.92	0.000
314.14	39.559	6.971	30.79	0.25	15.268	11.191	-48.52		-0.92	0.000
314.41	39.582	6.538	30.77	0.25	15.428	11.381	-22.00		-0.92	0.000
314.68	39.614	6.094	30.74	0.25	15.577	11.560	-27.53		-0.92	0.000
314.96	39.641	5.625	30.71	0.25	15.722	11.723	-44.15		-0.92	0.000
315.23	39.669	5.156	30.68	0.25	15.856	11.873	-56.80		-0.92	0.000
315.51	39.686	4.675	30.66	0.25	15.977	11.944	-88.36		-0.92	0.000
315.78	39.706	4.171	30.64	0.25	16.059	12.072	-152.48		-0.92	0.000
316.06	39.725	3.654	30.62	0.25	16.136	12.188	-170.84		-0.92	0.000
316.33	39.734	3.125	30.62	0.25	16.199	12.290	-187.62		-0.92	0.000
316.60	39.750	2.596	30.60	0.25	16.272	12.378	-192.09		-0.92	0.000
316.87	39.760	2.055	30.59	0.25	16.326	12.453	-213.67		-0.92	0.000
317.14	39.768	1.526	30.58	0.25	16.371	12.517	-228.14		-0.92	0.000
317.41	39.770	0.974	30.58	0.25	16.396	12.566	-237.94		-0.92	0.000
317.68	39.774	0.421	30.58	0.25	16.417	12.603	-239.41		-0.92	0.000
317.95	39.777	-0.096	30.57	0.25	16.440	12.618	-235.60		-0.92	0.000
318.23	39.777	-0.649	30.57	0.25	16.445	12.639	-235.70		-0.92	0.000
318.50	39.777	-1.190	30.57	0.25	16.450	12.652	-239.14		-0.92	0.000
318.77	39.777	-1.743	30.57	0.25	16.458	12.658	-241.28		-0.92	0.000
319.04	39.777	-2.272	30.57	0.25	16.456	12.660	-243.12		-0.92	0.000
319.31	39.763	-2.800	30.59	0.25	16.457	12.660	-243.53		-0.92	0.000
319.59	39.746	-3.329	30.60	0.25	16.440	12.659	-225.46		-0.92	0.000
319.87	39.727	-3.846	30.62	0.25	16.426	12.655	-210.92		-0.92	0.000
320.15	39.706	-4.375	30.64	0.25	16.403	12.652	-194.57		-0.92	0.000
320.43	39.691	-4.880	30.66	0.25	16.397	12.646	-199.42		-0.92	0.000
320.71	39.665	-5.373	30.68	0.25	16.386	12.638	-241.60		-0.92	0.000
320.98	39.636	-5.853	30.71	0.25	16.383	12.631	-271.23		-0.92	0.000
321.26	39.605	-6.310	30.75	0.25	16.384	12.627	-308.58		-0.92	0.000
321.54	39.584	-6.755	30.77	0.25	16.367	12.619	-310.99		-0.92	0.000
321.82	39.547	-7.175	30.80	0.25	16.348	12.612	-290.48		-0.92	0.000
322.09	39.511	-7.584	30.84	0.25	16.293	12.597	-281.72		-0.92	0.000
322.37	39.471	-7.969	30.88	0.25	16.212	12.552	-271.43		-0.92	0.000
322.66	39.445	-8.329	30.91	0.25	16.127	12.473	-288.33		-0.92	0.000
322.93	39.402	-8.666	30.95	0.25	16.028	12.369	-296.83		-0.92	0.000
323.21	39.356	-8.990	30.99	0.25	15.898	12.244	-311.22		-0.92	0.000
323.48	39.313	-9.279	31.04	0.25	15.771	12.100	-320.21		-0.92	0.000
323.76	39.280	-9.543	31.07	0.25	15.625	11.945	-341.05		-0.92	0.000
324.04	39.232	-9.784	31.12	0.25	15.488	11.774	-364.76		-0.92	0.000
324.32	39.182	-10.000	31.17	0.25	15.334	11.589	-389.36		-0.92	0.000
324.60	39.132	-10.180	31.22	0.26	15.156	11.407	-402.77		-0.92	0.000
324.88	39.098	-10.337	31.25	0.26	15.083	11.212	-422.43		-0.92	0.000
325.15	39.045	-10.469	31.31	0.26	14.907	11.018	-429.44		-0.92	0.000
325.43	38.993	-10.565	31.36	0.26	14.730	10.816	-408.30		-0.92	0.000
325.71	38.941	-10.637	31.41	0.26	14.562	10.717	-379.32		-0.92	0.000
325.99	38.887	-10.685	31.46	0.26	14.396	10.515	-304.61		-0.92	0.000
326.28	38.851	-10.697	31.50	0.26	14.219	10.314	-240.80		-0.92	0.000
326.55	38.798	-10.673	31.55	0.26	14.047	10.119	-205.64		-0.92	0.000
326.84	38.745	-10.625	31.61	0.26	13.876	9.927	-131.32		-0.92	0.000
327.11	38.692	-10.553	31.66	0.26	13.710	9.740	-107.82		-0.92	0.000
327.39	38.657	-10.445	31.69	0.26	13.544	9.558	-79.51		-0.92	0.000
327.66	38.605	-10.313	31.75	0.26	13.379	9.374	-73.23		-0.92	0.000
327.94	38.554	-10.156	31.80	0.26	13.233	9.199	-68.24		-0.92	0.000
328.22	38.504	-9.964	31.85	0.26	13.083	9.028	-81.05		-0.92	0.000
328.50	38.454	-9.748	31.90	0.26	12.905	8.872	-139.77		-0.92	0.000
328.78	38.423	-9.507	31.93	0.26	12.812	8.712	-169.01		-0.92	0.000
329.06	38.375	-9.231	31.97	0.26	12.603	8.539	-173.92		-0.92	0.000
329.34	38.331	-8.942	32.02	0.26	12.431	8.356	-159.03		-0.92	0.000
329.62	38.287	-8.606	32.06	0.26	12.268	8.188	-110.25		-0.92	0.000
329.90	38.245	-8.257	32.11	0.26	12.134	8.039	-51.20		-0.92	0.000
330.17	38.218	-7.885	32.13	0.26	11.996	7.903	-25.91		-0.92	0.000
330.45	38.179	-7.500	32.17	0.26	11.885	7.841	14.38		-0.92	0.000
330.72	38.143	-7.091	32.21	0.26	11.781	7.726	28.24		-0.92	0.000
330.99	38.119	-6.671	32.23	0.26	11.694	7.624	70.59		-0.92	0.000
331.27	38.088	-6.226	32.26	0.26	11.615	7.531	99.57		-0.92	0.000
331.55	38.057	-5.781	32.29	0.26	11.530	7.451	171.87		-0.92	0.000
331.82	38.032	-5.300	32.32	0.26	11.469	7.376	202.77		-0.92	0.000
332.09	38.014	-4.808	32.34	0.26	11.439	7.305	253.89		-0.92	0.000
332.37	37.992	-4.315	32.36	0.26	11.389	7.248	268.33		-0.92	0.000
332.64	37.973	-3.810	32.38	0.26	11.346	7.196	221.63		-0.92	0.000
332.92	37.956	-3.281	32.39	0.26	11.306	7.157	172.27		-0.92	0.000
333.19	37.948	-2.752	32.40	0.26	11.278	7.123	59.59		-0.92	0.000
333.46	37.933	-2.212	32.42	0.27	11.262	7.106	5.91		-0.92	0.000
333.73	37.927	-1.671	32.42	0.27	11.253	7.083	-76.67		-0.92	0.000
334.00	37.918	-1.130	32.43	0.27	11.231	7.063	-105.32		-0.92	0.000
334.27	37.918	-0.589	32.43	0.27	11.235	7.047	-132.22		-0.92	0.000
334.54	37.918	-0.036	32.43	0.27	11.233	7.038	-139.88		-0.92	0.000
334.82	37.918	0.505	32.43	0.27	11.233	7.036	-166.42		-0.92	0.000
335.08	37.918	1.034	32.43	0.27	11.234	7.036	-196.85		-0.92	0.000
335.35	37.918	1.587	32.43	0.27	11.237	7.038	-255.95		-0.92	0.000
335.62	37.918	2.115	32.43	0.27	11.240	7.041	-264.15		-0.92	0.000
335.90	37.925	2.644	32.42	0.27	11.240	7.042	-240.97		-0.92	0.000
336.17	37.938	3.173	32.41	0.26	11.233	7.043	-212.62		-0.92	0.000
336.45	37.959	3.690	32.39	0.26	11.235	7.042	-127.19		-0.92	0.000
336.72	37.969	4.207	32.38	0.26	11.239	7.039	-86.78		-0.92	0.000
337.00	37.996	4.724	32.35	0.26	11.234	7.036	-30.05		-0.92	0.000
337.26	38.020	5.204	32.33	0.26	11.238	7.036	-25.14		-0.92	0.000
337.54	38.048	5.685	32.30	0.26	11.239	7.036	-44.36		-0.92	0.000
337.82	38.069	6.130	32.28	0.26	11.237	7.038	-47.82		-0.92	0.000
338.10	38.100	6.575	32.25	0.26	11.238	7.039	-56.59		-0.92	0.000
338.37	38.136	7.007	32.21	0.26	11.242	7.040	-55.37		-0.92	0.000
338.65	38.170	7.428	32.18	0.26	11.255	7.046	-59.06		-0.92	0.000
338.92	38.196	7.813	32.15	0.26	11.266	7.052	-69.77		-0.92	0.000
339.20	38.236	8.185	32.11	0.26	11.294	7.065	-85.67		-0.92	0.000
339.47	38.278	8.522	32.07	0.26	11.316	7.086	-120.12		-0.92	0.000
339.75	38.323	8.846	32.03	0.26	11.336	7.115	-141.82		-0.92	0.000
340.03	38.352	9.147	32.00	0.26	11.382	7.149	-177.76		-0.92	0.000
340.30	38.398	9.435	31.95	0.26	11.419	7.193	-183.73		-0.92	0.000
340.58	38.445	9.688	31.91	0.26	11.470	7.240	-189.14		-0.92	0.000
340.85	38.479	9.904	31.87	0.26	11.527	7.289	-188.68		-0.92	0.000
341.13	38.529	10.096	31.82	0.26	11.591	7.346	-205.72		-0.92	0.000
341.40	38.579	10.264	31.77	0.26	11.654	7.409	-212.37		-0.92	0.000
341.68	38.631	10.409	31.72	0.26	11.723	7.480	-204.26		-0.92	0.000
341.95	38.666	10.517	31.68	0.26	11.806	7.557	-195.10		-0.92	0.000
342.23	38.718	10.613	31.63	0.26	11.894	7.598	-172.36		-0.92	0.000
342.50	38.772	10.661	31.58	0.26	11.995	7.688	-158.22		-0.92	0.000
342.78	38.827	10.697	31.52	0.26	12.045	7.788	-144.15		-0.92	0.000
343.05	38.860	10.697	31.49	0.26	12.161	7.902	-161.03		-0.92	0.000
343.33	38.914	10.661	31.44	0.26	12.279	8.033	-215.92		-0.92	0.000
343.60	38.968	10.601	31.38	0.26	12.410	8.174	-250.25		-0.92	0.000
343.88	39.020	10.517	31.33	0.26	12.550	8.329	-284.02		-0.92	0.000
344.15	39.056	10.397	31.29	0.26	12.682	8.489	-287.64		-0.92	0.000
344.43	39.106	10.264	31.24	0.26	12.853	8.662	-298.36		-0.92	0.000
344.70	39.159	10.084	31.19	0.26	13.057	8.842	-310.08		-0.92	0.000
344.98	39.207	9.892	31.14	0.25	13.304	9.037	-350.43		-0.92	0.000
345.25	39.241	9.663	31.11	0.25	13.522	9.266	-374.30		-0.92	0.000
345.53	39.288	9.423	31.06	0.25	13.626	9.386	-440.11		-0.92	0.000
345.80	39.334	9.147	31.02	0.25	13.860	9.631	-464.25		-0.92	0.000
346.08	39.364	8.846	30.99	0.25	14.077	9.877	-451.56		-0.92	0.000
346.35	39.409	8.522	30.94	0.25	14.294	10.120	-425.07		-0.92	0.000
346.62	39.448	8.173	30.90	0.25	14.498	10.351	-336.02		-0.92	0.000
346.90	39.488	7.813	30.86	0.25	14.703	10.575	-286.51		-0.92	0.000
347.18	39.515	7.416	30.83	0.25	14.884	10.791	-182.03		-0.92	0.000
347.45	39.550	7.007	30.80	0.25	15.064	10.990	-138.10		-0.92	0.000
347.73	39.583	6.575	30.77	0.25	15.240	11.187	-92.61		-0.92	0.000
348.01	39.615	6.142	30.73	0.25	15.397	11.366	-81.08		-0.92	0.000
348.28	39.636	5.661	30.71	0.25	15.550	11.535	-74.07		-0.92	0.000
348.56	39.663	5.180	30.69	0.25	15.602	11.689	-23.84		-0.92	0.000
348.83	39.687	4.688	30.66	0.25	15.723	11.757	-1.24		-0.92	0.000
349.10	39.707	4.183	30.64	0.25	15.843	11.894	21.39		-0.92	0.000
349.37	39.716	3.678	30.63	0.25	15.946	12.013	15.41		-0.92	0.000
349.64	39.736	3.161	30.61	0.25	16.039	12.116	-6.82		-0.92	0.000
349.91	39.751	2.632	30.60	0.25	16.085	12.208	-13.26		-0.92	0.000
350.18	39.759	2.103	30.59	0.25	16.147	12.284	-3.26		-0.92	0.000
350.44	39.769	1.575	30.58	0.25	16.187	12.348	20.80		-0.92	0.000
350.71	39.769	1.034	30.58	0.25	16.212	12.401	43.14		-0.92	0.000
350.98	39.777	0.493	30.57	0.25	16.251	12.422	49.65		-0.92	0.000
351.24	39.777	-0.036	30.57	0.25	16.255	12.455	53.21		-0.92	0.000
351.51	39.777	-0.565	30.57	0.25	16.258	12.484	56.38		-0.92	0.000
351.78	39.777	-1.106	30.57	0.25	16.267	12.495	57.12		-0.92	0.000
352.05	39.777	-1.647	30.57	0.25	16.275	12.499	47.98		-0.92	0.000
352.31	39.775	-2.175	30.57	0.25	16.278	12.500	37.39		-0.92	0.000
352.59	39.766	-2.704	30.58	0.25	16.278	12.500	-6.66		-0.92	0.000
352.86	39.751	-3.221	30.60	0.25	16.273	12.500	-40.04		-0.92	0.000
353.14	39.732	-3.738	30.62	0.25	16.243	12.500	-134.59		-0.92	0.000
353.41	39.711	-4.243	30.64	0.25	16.226	12.498	-186.91		-0.92	0.000
353.69	39.696	-4.748	30.65	0.25	16.233	12.492	-244.06		-0.92	0.000
353.97	39.670	-5.240	30.68	0.25	16.216	12.485	-273.49		-0.92	0.000
354.25	39.641	-5.721	30.71	0.25	16.207	12.480	-293.14		-0.92	0.000
354.52	39.613	-6.190	30.74	0.25	16.208	12.470	-338.59		-0.92	0.000
354.81	39.589	-6.647	30.76	0.25	16.196	12.464	-357.33		-0.92	0.000
355.08	39.555	-7.067	30.80	0.25	16.164	12.456	-379.27		-0.92	0.000
355.36	39.519	-7.488	30.83	0.25	16.101	12.443	-372.12		-0.92	0.000
355.63	39.480	-7.873	30.87	0.25	16.063	12.396	-326.31		-0.92	0.000
355.90	39.455	-8.245	30.90	0.25	15.985	12.317	-292.30		-0.92	0.000
356.18	39.411	-8.582	30.94	0.25	15.898	12.214	-231.57		-0.92	0.000
356.46	39.366	-8.894	30.98	0.25	15.762	12.087	-204.94		-0.92	0.000
356.75	39.323	-9.195	31.03	0.25	15.634	11.940	-134.77		-0.92	0.000
357.02	39.293	-9.471	31.06	0.25	15.503	11.863	-106.60		-0.92	0.000
357.30	39.243	-9.724	31.11	0.25	15.360	11.698	-44.42		-0.92	0.000
357.57	39.195	-9.940	31.16	0.25	15.193	11.521	-23.88		-0.92	0.000
357.85	39.142	-10.132	31.21	0.26	15.020	11.336	23.66		-0.92	0.000
358.12	39.110	-10.300	31.24	0.26	14.858	11.144	29.38		-0.92	0.000
358.39	39.057	-10.433	31.29	0.26	14.702	10.943	-1.83		-0.92	0.000
358.67	39.006	-10.541	31.34	0.26	14.597	10.745	-78.62		-0.92	0.000
358.94	38.952	-10.625	31.40	0.26	14.430	10.541	-107.88		-0.92	0.000
359.22	38.916	-10.673	31.43	0.26	14.260	10.341	-146.73		-0.92	0.000
359.50	38.864	-10.697	31.49	0.26	14.085	10.137	-162.97		-0.92	0.000
359.77	38.810	-10.685	31.54	0.26	13.919	9.939	-188.72		-0.92	0.000
360.05	38.757	-10.649	31.59	0.26	13.753	9.745	-192.14		-0.92	0.000
360.33	38.720	-10.589	31.63	0.26	13.579	9.651	-177.04		-0.92	0.000
360.60	38.669	-10.493	31.68	0.26	13.418	9.466	-171.84		-0.92	0.000
360.88	38.616	-10.373	31.73	0.26	13.251	9.282	-184.01		-0.92	0.000
361.16	38.565	-10.228	31.78	0.26	13.109	9.105	-188.83		-0.92	0.000
361.44	38.531	-10.048	31.82	0.26	12.956	8.931	-190.19		-0.92	0.000
361.71	38.482	-9.844	31.87	0.26	12.792	8.770	-188.71		-0.92	0.000
361.99	38.433	-9.603	31.92	0.26	12.699	8.616	-178.37		-0.92	0.000
362.26	38.386	-9.351	31.96	0.26	12.489	8.447	-181.38		-0.92	0.000
362.54	38.355	-9.075	32.00	0.26	12.321	8.272	-185.14		-0.92	0.000
362.82	38.310	-8.762	32.04	0.26	12.154	8.098	-200.97		-0.92	0.000
363.10	38.268	-8.425	32.08	0.26	12.013	7.942	-254.36		-0.92	0.000
363.37	38.227	-8.077	32.12	0.26	11.890	7.797	-316.50		-0.92	0.000
363.65	38.200	-7.692	32.15	0.26	11.776	7.675	-326.70		-0.92	0.000
363.92	38.164	-7.296	32.19	0.26	11.677	7.620	-301.12		-0.92	0.000
364.20	38.128	-6.887	32.22	0.26	11.583	7.517	-270.07		-0.92	0.000
364.48	38.095	-6.442	32.26	0.26	11.491	7.424	-193.28		-0.92	0.000
364.75	38.075	-5.986	32.27	0.26	11.423	7.337	-169.13		-0.92	0.000
365.03	38.045	-5.529	32.31	0.26	11.391	7.258	-121.19		-0.92	0.000
365.30	38.020	-5.048	32.33	0.26	11.328	7.191	-104.17		-0.92	0.000
365.58	37.997	-4.543	32.35	0.26	11.273	7.128	-66.28		-0.92	0.000
365.86	37.982	-4.038	32.37	0.26	11.224	7.074	-36.01		-0.92	0.000
366.13	37.963	-3.510	32.39	0.26	11.195	7.028	21.30		-0.92	0.000
366.40	37.951	-2.981	32.40	0.26	11.167	6.991	55.17		-0.92	0.000
366.68	37.942	-2.452	32.41	0.26	11.141	6.961	100.85		-0.92	0.000
366.94	37.932	-1.923	32.42	0.27	11.127	6.939	105.47		-0.92	0.000
367.21	37.923	-1.370	32.43	0.27	11.109	6.926	105.25		-0.92	0.000
367.49	37.918	-0.829	32.43	0.27	11.102	6.908	104.79		-0.92	0.000
367.75	37.916	-0.276	32.43	0.27	11.107	6.898	114.47		-0.92	0.000
368.02	37.915	0.252	32.43	0.27	11.099	6.892	123.73		-0.92	0.000
368.29	37.915	0.793	32.43	0.27	11.100	6.889	150.41		-0.92	0.000
368.56	37.915	1.334	32.43	0.27	11.096	6.889	161.67		-0.92	0.000
368.83	37.915	1.863	32.43	0.27	11.100	6.888	159.03		-0.92	0.000
369.10	37.922	2.404	32.43	0.27	11.102	6.890	138.40		-0.92	0.000
369.37	37.929	2.933	32.42	0.27	11.100	6.889	81.74		-0.92	0.000
369.64	37.948	3.438	32.40	0.26	11.101	6.889	58.97		-0.92	0.000
369.91	37.968	3.954	32.38	0.26	11.104	6.889	19.29		-0.92	0.000
370.19	37.981	4.459	32.37	0.26	11.108	6.889	-10.06		-0.92	0.000
370.45	38.006	4.952	32.34	0.26	11.101	6.888	-52.68		-0.92	0.000
370.73	38.031	5.433	32.32	0.26	11.103	6.887	-75.05		-0.92	0.000
371.01	38.059	5.889	32.29	0.26	11.106	6.889	-109.32		-0.92	0.000
371.28	38.079	6.358	32.27	0.26	11.107	6.891	-127.16		-0.92	0.000
371.56	38.113	6.791	32.24	0.26	11.104	6.892	-175.76		-0.92	0.000
371.84	38.150	7.200	32.20	0.26	11.125	6.894	-192.50		-0.92	0.000
372.11	38.186	7.620	32.16	0.26	11.130	6.905	-217.18		-0.92	0.000
372.39	38.213	7.993	32.14	0.26	11.134	6.910	-215.59		-0.92	0.000
372.67	38.252	8.353	32.10	0.26	11.167	6.930	-206.22		-0.92	0.000
372.94	38.297	8.690	32.05	0.26	11.190	6.953	-190.69		-0.92	0.000
373.21	38.341	9.002	32.01	0.26	11.227	6.984	-142.76		-0.92	0.000
373.49	38.370	9.291	31.98	0.26	11.271	7.020	-112.74		-0.92	0.000
373.76	38.418	9.555	31.93	0.26	11.322	7.066	-57.61		-0.92	0.000
374.04	38.466	9.784	31.88	0.26	11.370	7.113	-33.32		-0.92	0.000
374.31	38.500	10.000	31.85	0.26	11.423	7.163	3.66		-0.92	0.000
374.58	38.550	10.180	31.80	0.26	11.486	7.220	38.92		-0.92	0.000
374.85	38.601	10.337	31.75	0.26	11.547	7.283	63.07		-0.92	0.000
375.13	38.652	10.457	31.70	0.26	11.585	7.319	123.07		-0.92	0.000
375.40	38.687	10.565	31.66	0.26	11.662	7.389	150.74		-0.92	0.000
375.67	38.741	10.637	31.61	0.26	11.743	7.472	201.06		-0.92	0.000
375.94	38.793	10.685	31.56	0.26	11.837	7.563	199.10		-0.92	0.000
376.22	38.830	10.697	31.52	0.26	11.944	7.663	137.72		-0.92	0.000
376.49	38.883	10.685	31.47	0.26	12.054	7.780	93.13		-0.92	0.000
376.77	38.937	10.649	31.41	0.26	12.172	7.908	23.87		-0.92	0.000
377.03	38.991	10.577	31.36	0.26	12.303	8.050	5.34		-0.92	0.000
377.31	39.024	10.481	31.33	0.26	12.368	8.205	14.49		-0.92	0.000
377.58	39.077	10.349	31.27	0.26	12.520	8.368	30.26		-0.92	0.000
377.85	39.127	10.204	31.22	0.26	12.683	8.456	45.84		-0.92	0.000
378.13	39.163	10.024	31.19	0.25	12.888	8.630	38.58		-0.92	0.000
378.39	39.211	9.820	31.14	0.25	13.118	8.825	-3.57		-0.92	0.000
378.67	39.261	9.591	31.09	0.25	13.344	9.053	-41.72		-0.92	0.000
378.94	39.307	9.339	31.04	0.25	13.573	9.292	-91.03		-0.92	0.000
379.22	39.338	9.050	31.01	0.25	13.788	9.542	-106.05		-0.92	0.000
379.49	39.383	8.750	30.97	0.25	14.008	9.785	-135.09		-0.92	0.000
379.77	39.424	8.413	30.93	0.25	14.218	10.027	-153.03		-0.92	0.000
380.04	39.452	8.065	30.90	0.25	14.327	10.256	-201.32		-0.92	0.000
380.31	39.492	7.692	30.86	0.25	14.522	10.480	-226.64		-0.92	0.000
380.59	39.529	7.284	30.82	0.25	14.706	10.691	-280.74		-0.92	0.000
380.86	39.564	6.887	30.79	0.25	14.900	10.789	-298.99		-0.92	0.000
381.14	39.587	6.454	30.76	0.25	15.069	10.987	-317.28		-0.92	0.000
381.41	39.616	5.998	30.73	0.25	15.220	11.172	-305.13		-0.92	0.000
381.69	39.647	5.529	30.70	0.25	15.377	11.339	-232.97		-0.92	0.000
381.96	39.671	5.060	30.68	0.25	15.489	11.498	-177.79		-0.92	0.000
382.24	39.683	4.555	30.67	0.25	15.614	11.639	-68.22		-0.92	0.000
382.50	39.710	4.050	30.64	0.25	15.673	11.765	-30.32		-0.92	0.000
382.78	39.728	3.534	30.62	0.25	15.747	11.878	16.78		-0.92	0.000
383.04	39.737	3.017	30.61	0.25	15.837	11.978	40.01		-0.92	0.000
383.32	39.747	2.488	30.60	0.25	15.920	12.062	84.14		-0.92	0.000
383.59	39.757	1.959	30.59	0.25	15.983	12.103	107.65		-0.92	0.000
383.86	39.766	1.406	30.58	0.25	16.023	12.169	119.19		-0.92	0.000
384.13	39.770	0.865	30.58	0.25	16.046	12.217	107.13		-0.92	0.000
384.39	39.773	0.325	30.58	0.25	16.066	12.258	48.97		-0.92	0.000
384.66	39.774	-0.204	30.58	0.25	16.079	12.281	5.78		-0.92	0.000
384.94	39.774	-0.745	30.58	0.25	16.090	12.299	-81.76		-0.92	0.000
385.20	39.774	-1.274	30.58	0.25	16.092	12.308	-109.89		-0.92	0.000
385.47	39.774	-1.827	30.58	0.25	16.095	12.312	-131.11		-0.92	0.000
385.75	39.774	-2.356	30.58	0.25	16.094	12.313	-134.83		-0.92	0.000
386.02	39.759	-2.885	30.59	0.25	16.091	12.313	-140.57		-0.92	0.000
386.30	39.742	-3.413	30.61	0.25	16.083	12.312	-138.87		-0.92	0.000
386.57	39.730	-3.918	30.62	0.25	16.062	12.310	-109.79		-0.92	0.000
386.85	39.713	-4.447	30.64	0.25	16.053	12.309	-80.48		-0.92	0.000
387.13	39.684	-4.940	30.67	0.25	16.046	12.303	-32.89		-0.92	0.000
387.40	39.659	-5.421	30.69	0.25	16.036	12.295	-22.72		-0.92	0.000
387.68	39.630	-5.901	30.72	0.25	16.028	12.288	-11.60		-0.92	0.000
387.95	39.609	-6.346	30.74	0.25	16.024	12.278	-20.74		-0.92	0.000
388.22	39.577	-6.791	30.77	0.25	16.010	12.272	-20.28		-0.92	0.000
388.50	39.541	-7.200	30.81	0.25	15.987	12.261	-22.83		-0.92	0.000
388.77	39.515	-7.608	30.83	0.25	15.917	12.235	-30.95		-0.92	0.000
389.05	39.477	-7.993	30.87	0.25	15.840	12.209	-35.80		-0.92	0.000
389.33	39.436	-8.341	30.91	0.25	15.749	12.131	-52.14		-0.92	0.000
389.60	39.392	-8.678	30.96	0.25	15.636	12.025	-119.57		-0.92	0.000
389.88	39.364	-9.002	30.99	0.25	15.509	11.900	-159.46		-0.92	0.000
390.16	39.318	-9.279	31.03	0.25	15.446	11.756	-196.63		-0.92	0.000
390.44	39.272	-9.555	31.08	0.25	15.296	11.593	-186.30		-0.92	0.000
390.72	39.223	-9.784	31.13	0.25	15.148	11.417	-132.35		-0.92	0.000
390.99	39.189	-10.000	31.16	0.25	14.993	11.231	-104.25		-0.92	0.000
391.27	39.138	-10.192	31.21	0.26	14.830	11.040	-68.83		-0.92	0.000
391.54	39.087	-10.349	31.26	0.26	14.658	10.844	-60.54		-0.92	0.000
391.82	39.036	-10.469	31.31	0.26	14.480	10.641	-51.36		-0.92	0.000
392.09	39.001	-10.565	31.35	0.26	14.312	10.439	-46.43		-0.92	0.000
392.37	38.948	-10.637	31.40	0.26	14.128	10.233	-14.64		-0.92	0.000
392.64	38.895	-10.685	31.46	0.26	13.966	10.132	27.45		-0.92	0.000
392.92	38.842	-10.697	31.51	0.26	13.782	9.928	133.21		-0.92	0.000
393.19	38.806	-10.685	31.54	0.26	13.706	9.728	180.14		-0.92	0.000
393.46	38.752	-10.637	31.60	0.26	13.545	9.533	219.78		-0.92	0.000
393.74	38.700	-10.565	31.65	0.26	13.378	9.345	212.09		-0.92	0.000
394.01	38.646	-10.469	31.70	0.26	13.213	9.167	177.64		-0.92	0.000
394.28	38.613	-10.337	31.74	0.26	13.054	8.984	163.61		-0.92	0.000
394.56	38.561	-10.180	31.79	0.26	12.911	8.810	146.59		-0.92	0.000
394.83	38.510	-10.000	31.84	0.26	12.764	8.644	125.46		-0.92	0.000
395.11	38.477	-9.784	31.87	0.26	12.600	8.490	56.65		-0.92	0.000
395.38	38.428	-9.555	31.92	0.26	12.401	8.337	10.09		-0.92	0.000
395.66	38.382	-9.291	31.97	0.26	12.219	8.252	-83.70		-0.92	0.000
395.94	38.336	-9.002	32.01	0.26	12.128	8.077	-170.08		-0.92	0.000
396.22	38.307	-8.690	32.04	0.26	11.977	7.907	-207.97		-0.92	0.000
396.50	38.264	-8.341	32.09	0.26	11.843	7.753	-218.06		-0.92	0.000
396.78	38.223	-7.981	32.13	0.26	11.716	7.620	-210.70		-0.92	0.000
397.06	38.184	-7.596	32.17	0.26	11.614	7.494	-194.34		-0.92	0.000
397.33	38.148	-7.200	32.20	0.26	11.511	7.387	-201.90		-0.92	0.000
397.61	38.125	-6.767	32.22	0.26	11.420	7.290	-238.00		-0.92	0.000
397.89	38.092	-6.322	32.26	0.26	11.343	7.205	-259.63		-0.92	0.000
398.17	38.061	-5.865	32.29	0.26	11.264	7.126	-296.81		-0.92	0.000
398.45	38.036	-5.385	32.31	0.26	11.205	7.054	-306.75		-0.92	0.000
398.73	38.018	-4.880	32.33	0.26	11.148	6.986	-313.66		-0.92	0.000
399.01	37.995	-4.387	32.36	0.26	11.110	6.932	-328.64		-0.92	0.000
399.29	37.977	-3.870	32.37	0.26	11.082	6.884	-343.24		-0.92	0.000
399.56	37.959	-3.329	32.39	0.26	11.042	6.845	-380.11		-0.92	0.000
399.83	37.950	-2.800	32.40	0.26	11.038	6.810	-394.70		-0.92	0.000
400.11	37.934	-2.260	32.42	0.27	11.009	6.796	-403.06		-0.92	0.000
400.38	37.925	-1.719	32.42	0.27	11.004	6.774	-400.03		-0.92	0.000
400.65	37.922	-1.166	32.43	0.27	10.987	6.757	-349.82		-0.92	0.000
400.93	37.918	-0.613	32.43	0.27	10.979	6.743	-313.58		-0.92	0.000
401.20	37.918	-0.072	32.43	0.27	10.984	6.736	-256.84		-0.92	0.000
401.47	37.915	0.481	32.43	0.27	10.975	6.732	-239.31		-0.92	0.000
401.73	37.915	1.010	32.43	0.27	10.984	6.731	-231.62		-0.92	0.000
402.00	37.915	1.550	32.43	0.27	10.979	6.732	-223.27		-0.92	0.000
402.27	37.915	2.091	32.43	0.27	10.979	6.732	-221.27		-0.92	0.000
402.54	37.925	2.620	32.42	0.27	10.983	6.734	-225.36		-0.92	0.000
402.82	37.938	3.137	32.41	0.26	10.980	6.736	-226.28		-0.92	0.000
403.09	37.957	3.654	32.39	0.26	10.983	6.737	-221.70		-0.92	0.000
403.37	37.977	4.171	32.37	0.26	10.973	6.735	-190.20		-0.92	0.000
403.64	37.991	4.675	32.36	0.26	10.985	6.731	-191.00		-0.92	0.000
403.91	38.019	5.168	32.33	0.26	10.982	6.731	-207.77		-0.92	0.000
404.19	38.043	5.637	32.31	0.26	10.987	6.731	-225.64		-0.92	0.000
404.47	38.074	6.106	32.28	0.26	10.981	6.732	-268.96		-0.92	0.000
404.74	38.095	6.550	32.26	0.26	10.985	6.733	-282.48		-0.92	0.000
405.02	38.129	6.983	32.22	0.26	10.989	6.735	-326.58		-0.92	0.000
405.29	38.165	7.392	32.18	0.26	10.992	6.741	-342.63		-0.92	0.000
405.56	38.191	7.788	32.16	0.26	11.033	6.748	-385.45		-0.92	0.000
405.84	38.231	8.149	32.12	0.26	11.026	6.759	-418.45		-0.92	0.000
406.11	38.273	8.498	32.08	0.26	11.060	6.782	-513.52		-0.92	0.000
406.39	38.315	8.822	32.03	0.26	11.070	6.811	-567.07		-0.92	0.000
406.66	38.345	9.123	32.01	0.26	11.135	6.841	-611.81		-0.92	0.000
406.93	38.391	9.399	31.96	0.26	11.174	6.880	-610.88		-0.92	0.000
407.21	38.439	9.651	31.91	0.26	11.217	6.920	-578.20		-0.92	0.000
407.48	38.487	9.880	31.86	0.26	11.249	6.976	-555.79		-0.92	0.000
407.76	38.522	10.072	31.83	0.26	11.290	7.023	-516.18		-0.92	0.000
408.04	38.572	10.252	31.78	0.26	11.355	7.085	-483.96		-0.92	0.000
408.32	38.623	10.397	31.73	0.26	11.406	7.143	-409.23		-0.92	0.000
408.59	38.675	10.517	31.67	0.26	11.487	7.175	-324.69		-0.92	0.000
408.86	38.710	10.601	31.64	0.26	11.555	7.253	-282.17		-0.92	0.000
409.14	38.764	10.661	31.59	0.26	11.637	7.331	-205.79		-0.92	0.000
409.41	38.819	10.685	31.53	0.26	11.742	7.425	-173.34		-0.92	0.000
409.69	38.870	10.697	31.48	0.26	11.834	7.521	-122.89		-0.92	0.000
409.97	38.906	10.661	31.44	0.26	11.955	7.641	-109.30		-0.92	0.000
410.24	38.959	10.613	31.39	0.26	12.008	7.767	-86.60		-0.92	0.000
410.51	39.013	10.529	31.34	0.26	12.133	7.912	-84.69		-0.92	0.000
410.79	39.048	10.421	31.30	0.26	12.257	8.066	-130.70		-0.92	0.000
411.06	39.098	10.276	31.25	0.26	12.414	8.227	-166.09		-0.92	0.000
411.34	39.151	10.108	31.20	0.26	12.609	8.404	-230.10		-0.92	0.000
411.62	39.201	9.916	31.15	0.25	12.824	8.597	-237.88		-0.92	0.000
411.89	39.233	9.688	31.12	0.25	13.044	8.709	-224.01		-0.92	0.000
412.16	39.280	9.447	31.07	0.25	13.310	8.934	-213.08		-0.92	0.000
412.44	39.327	9.171	31.02	0.25	13.530	9.190	-231.65		-0.92	0.000
412.71	39.372	8.870	30.98	0.25	13.710	9.443	-243.46		-0.92	0.000
412.99	39.400	8.546	30.95	0.25	13.920	9.684	-258.10		-0.92	0.000
413.27	39.445	8.209	30.91	0.25	14.036	9.909	-246.53		-0.92	0.000
413.54	39.484	7.837	30.87	0.25	14.235	10.144	-192.15		-0.92	0.000
413.82	39.519	7.452	30.83	0.25	14.432	10.363	-154.66		-0.92	0.000
414.09	39.546	7.043	30.80	0.25	14.644	10.572	-85.86		-0.92	0.000
414.36	39.579	6.623	30.77	0.25	14.811	10.769	-60.91		-0.92	0.000
414.64	39.609	6.178	30.74	0.25	14.957	10.956	-59.39		-0.92	0.000
414.91	39.638	5.721	30.71	0.25	15.133	11.044	-69.44		-0.92	0.000
415.19	39.659	5.240	30.69	0.25	15.255	11.205	-79.41		-0.92	0.000
415.46	39.680	4.760	30.67	0.25	15.372	11.364	-71.04		-0.92	0.000
415.74	39.705	4.243	30.65	0.25	15.493	11.498	-68.68		-0.92	0.000
416.01	39.714	3.726	30.64	0.25	15.546	11.619	-84.95		-0.92	0.000
416.29	39.733	3.209	30.62	0.25	15.636	11.731	-89.79		-0.92	0.000
416.56	39.748	2.680	30.60	0.25	15.708	11.819	-72.09		-0.92	0.000
416.83	39.759	2.139	30.59	0.25	15.770	11.904	-46.00		-0.92	0.000
417.10	39.766	1.599	30.58	0.25	15.822	11.970	-16.34		-0.92	0.000
417.37	39.769	1.046	30.58	0.25	15.860	12.032	-20.87		-0.92	0.000
417.64	39.777	0.505	30.57	0.25	15.905	12.053	-21.45		-0.92	0.000
417.91	39.777	-0.024	30.57	0.25	15.918	12.087	-15.24		-0.92	0.000
418.18	39.777	-0.577	30.57	0.25	15.924	12.115	6.93		-0.92	0.000
418.45	39.777	-1.118	30.57	0.25	15.919	12.124	7.72		-0.92	0.000
418.72	39.777	-1.647	30.57	0.25	15.930	12.131	-12.13		-0.92	0.000
418.99	39.777	-2.175	30.57	0.25	15.919	12.133	-33.36		-0.92	0.000
419.26	39.764	-2.704	30.59	0.25	15.931	12.132	-115.08		-0.92	0.000
419.54	39.747	-3.233	30.60	0.25	15.923	12.132	-169.20		-0.92	0.000
419.81	39.738	-3.738	30.61	0.25	15.890	12.130	-287.63		-0.92	0.000
420.09	39.718	-4.267	30.63	0.25	15.886	12.128	-325.54		-0.92	0.000
420.37	39.695	-4.760	30.66	0.25	15.872	12.122	-356.53		-0.92	0.000
420.64	39.668	-5.264	30.68	0.25	15.874	12.117	-369.25		-0.92	0.000
420.92	39.646	-5.745	30.70	0.25	15.864	12.112	-398.80		-0.92	0.000
421.20	39.618	-6.202	30.73	0.25	15.870	12.102	-413.44		-0.92	0.000
421.47	39.583	-6.659	30.77	0.25	15.849	12.098	-407.23		-0.92	0.000
421.75	39.550	-7.091	30.80	0.25	15.800	12.086	-383.16		-0.92	0.000
422.03	39.524	-7.488	30.83	0.25	15.777	12.071	-327.09		-0.92	0.000
422.31	39.487	-7.873	30.86	0.25	15.701	12.025	-304.07		-0.92	0.000
422.59	39.446	-8.245	30.90	0.25	15.598	11.946	-261.38		-0.92	0.000
422.87	39.404	-8.594	30.95	0.25	15.518	11.844	-235.83		-0.92	0.000
423.15	39.375	-8.918	30.97	0.25	15.385	11.714	-177.38		-0.92	0.000
423.43	39.328	-9.207	31.02	0.25	15.248	11.571	-116.79		-0.92	0.000
423.71	39.283	-9.483	31.07	0.25	15.099	11.403	-88.20		-0.92	0.000
423.99	39.233	-9.736	31.12	0.25	14.956	11.229	-53.08		-0.92	0.000
424.26	39.184	-9.952	31.17	0.25	14.792	11.036	-44.75		-0.92	0.000
424.53	39.151	-10.144	31.20	0.26	14.703	10.942	-66.47		-0.92	0.000
424.81	39.100	-10.313	31.25	0.26	14.543	10.751	-89.48		-0.92	0.000
425.09	39.048	-10.445	31.30	0.26	14.367	10.545	-88.64		-0.92	0.000
425.37	38.996	-10.553	31.35	0.26	14.204	10.344	-76.89		-0.92	0.000
425.64	38.961	-10.625	31.39	0.26	14.007	10.140	-30.25		-0.92	0.000
425.92	38.906	-10.673	31.44	0.26	13.837	9.935	-9.69		-0.92	0.000
426.19	38.855	-10.697	31.50	0.26	13.665	9.728	25.19		-0.92	0.000
426.46	38.818	-10.685	31.53	0.26	13.505	9.527	18.03		-0.92	0.000
426.74	38.764	-10.649	31.59	0.26	13.343	9.334	-19.22		-0.92	0.000
427.01	38.711	-10.577	31.64	0.26	13.177	9.146	-41.79		-0.92	0.000
427.29	38.660	-10.493	31.69	0.26	13.014	8.967	-53.00		-0.92	0.000
427.56	38.624	-10.361	31.73	0.26	12.933	8.783	-39.79		-0.92	0.000
427.84	38.573	-10.216	31.78	0.26	12.791	8.696	12.88		-0.92	0.000
428.11	38.523	-10.036	31.83	0.26	12.650	8.530	38.73		-0.92	0.000
428.39	38.472	-9.832	31.88	0.26	12.498	8.374	84.78		-0.92	0.000
428.66	38.442	-9.603	31.91	0.26	12.311	8.229	97.71		-0.92	0.000
428.94	38.392	-9.339	31.96	0.26	12.113	8.066	72.05		-0.92	0.000
429.21	38.347	-9.062	32.00	0.26	11.948	7.895	43.55		-0.92	0.000
429.48	38.302	-8.750	32.05	0.26	11.794	7.727	45.80		-0.92	0.000
429.76	38.273	-8.425	32.08	0.26	11.671	7.577	62.68		-0.92	0.000
430.03	38.232	-8.077	32.12	0.26	11.554	7.440	64.16		-0.92	0.000
430.30	38.193	-7.704	32.16	0.26	11.495	7.322	41.64		-0.92	0.000
430.58	38.169	-7.308	32.18	0.26	11.406	7.216	25.63		-0.92	0.000
430.85	38.134	-6.899	32.22	0.26	11.314	7.167	-32.20		-0.92	0.000
431.13	38.101	-6.466	32.25	0.26	11.233	7.078	-58.77		-0.92	0.000
431.40	38.070	-6.022	32.28	0.26	11.163	6.997	-108.46		-0.92	0.000
431.69	38.050	-5.541	32.30	0.26	11.101	6.924	-116.72		-0.92	0.000
431.97	38.024	-5.060	32.33	0.26	11.048	6.860	-99.72		-0.92	0.000
432.24	38.001	-4.555	32.35	0.26	11.005	6.801	-81.27		-0.92	0.000
432.52	37.979	-4.038	32.37	0.26	10.962	6.748	-31.76		-0.92	0.000
432.79	37.968	-3.522	32.38	0.26	10.929	6.703	-4.10		-0.92	0.000
433.06	37.952	-2.993	32.40	0.26	10.910	6.672	44.23		-0.92	0.000
433.33	37.942	-2.464	32.41	0.26	10.885	6.638	51.65		-0.92	0.000
433.60	37.931	-1.923	32.42	0.27	10.882	6.621	42.16		-0.92	0.000
433.87	37.923	-1.382	32.43	0.27	10.900	6.602	24.29		-0.92	0.000
434.14	37.920	-0.841	32.43	0.27	10.829	6.597	-44.70		-0.92	0.000
434.41	37.918	-0.300	32.43	0.27	10.844	6.588	-85.82		-0.92	0.000
434.69	37.918	0.240	32.43	0.27	10.888	6.584	-155.90		-0.92	0.000
434.95	37.918	0.769	32.43	0.27	10.875	6.586	-181.65		-0.92	0.000
435.22	37.918	1.322	32.43	0.27	10.842	6.588	-211.54		-0.92	0.000
435.49	37.918	1.863	32.43	0.27	10.881	6.587	-218.04		-0.92	0.000
435.76	37.919	2.392	32.43	0.27	10.868	6.586	-214.75		-0.92	0.000
436.03	37.933	2.909	32.42	0.27	10.853	6.588	-203.43		-0.92	0.000
436.31	37.943	3.438	32.41	0.26	10.862	6.588	-157.62		-0.92	0.000
436.58	37.961	3.942	32.39	0.26	10.890	6.589	-129.85		-0.92	0.000
436.86	37.986	4.459	32.36	0.26	10.857	6.584	-88.94		-0.92	0.000
437.12	38.011	4.952	32.34	0.26	10.879	6.581	-75.65		-0.92	0.000
437.40	38.028	5.433	32.32	0.26	10.866	6.579	-62.40		-0.92	0.000
437.67	38.056	5.901	32.29	0.26	10.852	6.580	-70.16		-0.92	0.000
437.95	38.090	6.346	32.26	0.26	10.877	6.582	-97.59		-0.92	0.000
438.22	38.122	6.791	32.23	0.26	10.863	6.587	-127.52		-0.92	0.000
438.49	38.145	7.212	32.21	0.26	10.894	6.588	-212.56		-0.92	0.000
438.77	38.183	7.608	32.17	0.26	10.890	6.592	-265.70		-0.92	0.000
439.05	38.223	7.981	32.13	0.26	10.888	6.611	-372.03		-0.92	0.000
439.32	38.248	8.341	32.10	0.26	10.919	6.619	-421.59		-0.92	0.000
439.60	38.291	8.678	32.06	0.26	10.992	6.635	-493.02		-0.92	0.000
439.87	38.334	8.990	32.02	0.26	10.992	6.671	-501.66		-0.92	0.000
440.15	38.382	9.279	31.97	0.26	11.004	6.708	-489.49		-0.92	0.000
440.42	38.413	9.543	31.94	0.26	11.084	6.746	-444.20		-0.92	0.000
440.69	38.461	9.784	31.89	0.26	11.076	6.789	-429.87		-0.92	0.000
440.96	38.511	9.988	31.84	0.26	11.138	6.840	-384.63		-0.92	0.000
441.24	38.560	10.168	31.79	0.26	11.211	6.896	-353.58		-0.92	0.000
441.51	38.596	10.325	31.75	0.26	11.257	6.951	-264.13		-0.92	0.000
441.79	38.646	10.457	31.70	0.26	11.320	7.015	-210.11		-0.92	0.000
442.06	38.698	10.565	31.65	0.26	11.388	7.084	-87.85		-0.92	0.000
442.34	38.734	10.637	31.62	0.26	11.472	7.124	-28.31		-0.92	0.000
442.61	38.788	10.673	31.56	0.26	11.555	7.207	70.74		-0.92	0.000
442.89	38.841	10.697	31.51	0.26	11.657	7.296	112.89		-0.92	0.000
443.16	38.895	10.685	31.46	0.26	11.691	7.400	183.40		-0.92	0.000
443.43	38.932	10.637	31.42	0.26	11.820	7.516	213.91		-0.92	0.000
443.71	38.982	10.577	31.37	0.26	11.942	7.645	228.59		-0.92	0.000
443.98	39.036	10.481	31.31	0.26	12.040	7.787	209.22		-0.92	0.000
444.25	39.072	10.349	31.28	0.26	12.188	7.949	151.29		-0.92	0.000
444.52	39.123	10.204	31.23	0.26	12.361	8.117	123.34		-0.92	0.000
444.80	39.173	10.024	31.18	0.25	12.576	8.294	67.33		-0.92	0.000
445.06	39.223	9.820	31.13	0.25	12.793	8.392	45.84		-0.92	0.000
445.34	39.255	9.579	31.10	0.25	13.004	8.614	21.11		-0.92	0.000
445.61	39.302	9.339	31.05	0.25	13.131	8.854	16.28		-0.92	0.000
445.88	39.348	9.050	31.00	0.25	13.350	9.103	-1.43		-0.92	0.000
446.15	39.378	8.750	30.97	0.25	13.559	9.349	-27.33		-0.92	0.000
446.42	39.420	8.425	30.93	0.25	13.762	9.595	-74.02		-0.92	0.000
446.69	39.463	8.077	30.89	0.25	13.993	9.823	-75.20		-0.92	0.000
446.97	39.502	7.704	30.85	0.25	14.194	10.053	-26.45		-0.92	0.000
447.24	39.527	7.320	30.82	0.25	14.373	10.270	-1.63		-0.92	0.000
447.51	39.561	6.899	30.79	0.25	14.554	10.373	15.34		-0.92	0.000
447.78	39.595	6.478	30.76	0.25	14.656	10.573	7.45		-0.92	0.000
448.05	39.615	6.022	30.73	0.25	14.804	10.762	-16.94		-0.92	0.000
448.32	39.645	5.577	30.71	0.25	14.966	10.935	-25.41		-0.92	0.000
448.59	39.669	5.108	30.68	0.25	15.097	11.096	-26.43		-0.92	0.000
448.87	39.687	4.615	30.66	0.25	15.223	11.246	-13.62		-0.92	0.000
449.14	39.707	4.111	30.64	0.25	15.330	11.378	35.09		-0.92	0.000
449.41	39.725	3.594	30.62	0.25	15.414	11.494	58.65		-0.92	0.000
449.68	39.742	3.077	30.61	0.25	15.507	11.595	91.78		-0.92	0.000
449.95	39.751	2.560	30.60	0.25	15.578	11.645	94.43		-0.92	0.000
450.22	39.761	2.019	30.59	0.25	15.606	11.724	70.46		-0.92	0.000
450.49	39.770	1.478	30.58	0.25	15.652	11.790	69.26		-0.92	0.000
450.75	39.771	0.950	30.58	0.25	15.691	11.845	81.83		-0.92	0.000
451.02	39.774	0.409	30.58	0.25	15.721	11.892	96.12		-0.92	0.000
451.29	39.775	-0.120	30.57	0.25	15.738	11.918	117.60		-0.92	0.000
451.56	39.775	-0.661	30.57	0.25	15.748	11.937	125.40		-0.92	0.000
451.83	39.775	-1.202	30.57	0.25	15.749	11.946	141.22		-0.92	0.000
452.10	39.775	-1.743	30.57	0.25	15.752	11.948	129.72		-0.92	0.000
452.37	39.775	-2.272	30.57	0.25	15.753	11.950	60.24		-0.92	0.000
452.64	39.765	-2.800	30.58	0.25	15.756	11.950	16.80		-0.92	0.000
452.91	39.748	-3.317	30.60	0.25	15.749	11.949	-39.56		-0.92	0.000
453.18	39.734	-3.846	30.62	0.25	15.729	11.949	-53.67		-0.92	0.000
453.46	39.716	-4.351	30.63	0.25	15.701	11.948	-100.59		-0.92	0.000
453.74	39.689	-4.844	30.66	0.25	15.696	11.943	-135.69		-0.92	0.000
454.01	39.663	-5.337	30.69	0.25	15.692	11.935	-209.65		-0.92	0.000
454.29	39.645	-5.805	30.71	0.25	15.684	11.928	-246.17		-0.92	0.000
454.56	39.614	-6.262	30.74	0.25	15.678	11.918	-306.96		-0.92	0.000
454.84	39.582	-6.707	30.77	0.25	15.674	11.914	-334.81		-0.92	0.000
455.12	39.546	-7.127	30.80	0.25	15.647	11.909	-326.49		-0.92	0.000
455.40	39.521	-7.548	30.83	0.25	15.589	11.891	-301.95		-0.92	0.000
455.68	39.484	-7.933	30.87	0.25	15.514	11.851	-266.03		-0.92	0.000
455.96	39.443	-8.293	30.91	0.25	15.429	11.777	-248.92		-0.92	0.000
456.24	39.400	-8.642	30.95	0.25	15.326	11.674	-200.75		-0.92	0.000
456.51	39.356	-8.954	30.99	0.25	15.191	11.547	-158.18		-0.92	0.000
456.79	39.327	-9.255	31.02	0.25	15.066	11.399	-59.88		-0.92	0.000
457.06	39.279	-9.519	31.07	0.25	14.910	11.235	16.32		-0.92	0.000
457.34	39.229	-9.760	31.12	0.25	14.760	11.058	36.70		-0.93	0.000
457.61	39.197	-9.976	31.15	0.25	14.595	10.869	38.69		-0.93	0.000
457.88	39.148	-10.156	31.20	0.26	14.513	10.674	35.71		-0.93	0.000
458.16	39.096	-10.313	31.25	0.26	14.337	10.475	23.66		-0.93	0.000
458.43	39.045	-10.445	31.31	0.26	14.162	10.372	31.95		-0.93	0.000
458.70	39.009	-10.553	31.34	0.26	13.999	10.165	48.11		-0.93	0.000
458.97	38.957	-10.625	31.39	0.26	13.815	9.959	54.70		-0.93	0.000
459.25	38.905	-10.673	31.45	0.26	13.639	9.749	52.56		-0.93	0.000
459.52	38.869	-10.697	31.48	0.26	13.461	9.545	46.68		-0.93	0.000
459.79	38.814	-10.685	31.54	0.26	13.303	9.345	15.71		-0.93	0.000
460.07	38.760	-10.649	31.59	0.26	13.146	9.150	-20.60		-0.93	0.000
460.34	38.709	-10.589	31.64	0.26	13.061	8.964	-84.92		-0.93	0.000
460.62	38.673	-10.493	31.68	0.26	12.905	8.786	-115.69		-0.93	0.000
460.89	38.622	-10.373	31.73	0.26	12.755	8.606	-169.61		-0.93	0.000
461.16	38.569	-10.216	31.78	0.26	12.608	8.432	-194.54		-0.93	0.000
461.44	38.519	-10.036	31.83	0.26	12.466	8.352	-242.47		-0.93	0.000
461.72	38.486	-9.832	31.86	0.26	12.314	8.195	-265.77		-0.93	0.000
462.00	38.436	-9.603	31.91	0.26	12.135	8.049	-317.85		-0.93	0.000
462.27	38.389	-9.339	31.96	0.26	11.944	7.891	-351.08		-0.93	0.000
462.55	38.343	-9.062	32.01	0.26	11.785	7.725	-416.01		-0.93	0.000
462.83	38.314	-8.750	32.04	0.26	11.639	7.560	-426.12		-0.93	0.000
463.10	38.272	-8.413	32.08	0.26	11.515	7.412	-395.76		-0.93	0.000
463.38	38.231	-8.065	32.12	0.26	11.458	7.280	-369.62		-0.93	0.000
463.66	38.192	-7.680	32.16	0.26	11.355	7.164	-320.77		-0.93	0.000
463.94	38.166	-7.284	32.18	0.26	11.264	7.062	-295.82		-0.93	0.000
464.21	38.131	-6.863	32.22	0.26	11.171	6.970	-290.55		-0.93	0.000
464.49	38.097	-6.430	32.25	0.26	11.098	6.886	-298.87		-0.93	0.000
464.77	38.069	-5.974	32.28	0.26	11.021	6.811	-298.22		-0.93	0.000
465.04	38.048	-5.493	32.30	0.26	10.967	6.741	-272.88		-0.93	0.000
465.32	38.023	-5.012	32.33	0.26	10.917	6.709	-247.59		-0.93	0.000
465.60	38.000	-4.507	32.35	0.26	10.880	6.652	-201.97		-0.93	0.000
465.87	37.978	-4.002	32.37	0.26	10.846	6.603	-182.60		-0.93	0.000
466.15	37.966	-3.486	32.38	0.26	10.810	6.558	-185.69		-0.93	0.000
466.42	37.954	-2.945	32.40	0.26	10.781	6.526	-186.03		-0.93	0.000
466.69	37.938	-2.404	32.41	0.26	10.777	6.496	-176.24		-0.93	0.000
466.96	37.929	-1.875	32.42	0.27	10.759	6.474	-147.86		-0.93	0.000
467.24	37.925	-1.334	32.42	0.27	10.755	6.454	-66.73		-0.93	0.000
467.51	37.920	-0.781	32.43	0.27	10.741	6.443	-21.21		-0.93	0.000
467.77	37.918	-0.240	32.43	0.27	10.744	6.439	28.83		-0.93	0.000
468.04	37.918	0.300	32.43	0.27	10.747	6.439	30.58		-0.93	0.000
468.30	37.918	0.841	32.43	0.27	10.744	6.436	14.33		-0.93	0.000
468.57	37.918	1.358	32.43	0.27	10.745	6.437	1.68		-0.93	0.000
468.84	37.918	1.887	32.43	0.27	10.749	6.438	-9.32		-0.93	0.000
469.11	37.924	2.416	32.43	0.27	10.750	6.440	5.92		-0.93	0.000
469.37	37.934	2.945	32.42	0.27	10.743	6.440	59.91		-0.93	0.000
469.64	37.948	3.462	32.40	0.26	10.747	6.439	83.12		-0.93	0.000
469.91	37.968	3.954	32.38	0.26	10.748	6.439	109.59		-0.93	0.000
470.18	37.990	4.459	32.36	0.26	10.747	6.438	116.75		-0.93	0.000
470.46	38.004	4.952	32.35	0.26	10.750	6.438	89.07		-0.93	0.000
470.73	38.032	5.433	32.32	0.26	10.751	6.439	78.23		-0.93	0.000
471.00	38.059	5.901	32.29	0.26	10.753	6.441	55.85		-0.93	0.000
471.27	38.079	6.346	32.27	0.26	10.747	6.441	40.52		-0.93	0.000
471.54	38.113	6.779	32.24	0.26	10.755	6.442	2.15		-0.93	0.000
471.81	38.148	7.200	32.20	0.26	10.769	6.445	-13.89		-0.93	0.000
472.09	38.186	7.596	32.16	0.26	10.779	6.455	-51.43		-0.93	0.000
472.36	38.211	7.969	32.14	0.26	10.790	6.464	-68.40		-0.93	0.000
472.64	38.254	8.317	32.10	0.26	10.815	6.478	-119.86		-0.93	0.000
472.91	38.296	8.654	32.05	0.26	10.832	6.502	-151.81		-0.93	0.000
473.19	38.325	8.966	32.02	0.26	10.859	6.530	-211.36		-0.93	0.000
473.46	38.369	9.267	31.98	0.26	10.896	6.564	-217.55		-0.93	0.000
473.73	38.418	9.531	31.93	0.26	10.946	6.605	-206.06		-0.93	0.000
474.01	38.466	9.760	31.88	0.26	10.985	6.651	-191.02		-0.93	0.000
474.28	38.498	9.976	31.85	0.26	11.034	6.697	-177.97		-0.93	0.000
474.56	38.548	10.168	31.80	0.26	11.083	6.749	-168.24		-0.93	0.000
474.83	38.601	10.325	31.75	0.26	11.142	6.807	-157.08		-0.93	0.000
475.10	38.651	10.457	31.70	0.26	11.202	6.866	-159.81		-0.93	0.000
475.38	38.687	10.553	31.66	0.26	11.271	6.900	-199.40		-0.93	0.000
475.65	38.739	10.625	31.61	0.26	11.309	6.971	-219.81		-0.93	0.000
475.93	38.793	10.673	31.56	0.26	11.383	7.049	-257.73		-0.93	0.000
476.20	38.829	10.697	31.52	0.26	11.470	7.134	-266.37		-0.93	0.000
476.47	38.883	10.685	31.47	0.26	11.558	7.231	-277.96		-0.93	0.000
476.75	38.936	10.649	31.41	0.26	11.669	7.341	-282.26		-0.93	0.000
477.02	38.988	10.577	31.36	0.26	11.788	7.469	-261.98		-0.93	0.000
477.30	39.023	10.481	31.33	0.26	11.902	7.608	-238.69		-0.93	0.000
477.57	39.075	10.361	31.27	0.26	12.041	7.757	-208.59		-0.93	0.000
477.84	39.128	10.204	31.22	0.26	12.201	7.914	-206.81		-0.93	0.000
478.12	39.178	10.024	31.17	0.25	12.413	8.089	-203.71		-0.93	0.000
478.39	39.211	9.820	31.14	0.25	12.522	8.186	-187.79		-0.93	0.000
478.67	39.260	9.591	31.09	0.25	12.748	8.404	-134.97		-0.93	0.000
478.94	39.307	9.339	31.04	0.25	12.954	8.649	-103.27		-0.93	0.000
479.21	39.337	9.050	31.01	0.25	13.182	8.899	-30.48		-0.93	0.000
479.48	39.382	8.750	30.97	0.25	13.396	9.145	3.47		-0.93	0.000
479.75	39.423	8.425	30.93	0.25	13.605	9.385	60.88		-0.93	0.000
480.03	39.465	8.077	30.88	0.25	13.825	9.621	70.95		-0.93	0.000
480.30	39.492	7.704	30.86	0.25	14.018	9.850	50.69		-0.93	0.000
480.57	39.529	7.308	30.82	0.25	14.202	10.071	40.30		-0.93	0.000
480.84	39.565	6.899	30.78	0.25	14.310	10.276	37.13		-0.93	0.000
481.11	39.587	6.466	30.76	0.25	14.474	10.375	39.29		-0.93	0.000
481.38	39.618	6.034	30.73	0.25	14.634	10.563	28.59		-0.93	0.000
481.65	39.645	5.577	30.71	0.25	14.798	10.738	8.58		-0.93	0.000
481.93	39.665	5.108	30.68	0.25	14.934	10.900	-70.33		-0.93	0.000
482.21	39.689	4.615	30.66	0.25	15.050	11.051	-172.43		-0.93	0.000
482.48	39.711	4.111	30.64	0.25	15.168	11.185	-231.03		-0.93	0.000
482.76	39.729	3.582	30.62	0.25	15.261	11.310	-346.04		-0.93	0.000
483.03	39.738	3.053	30.61	0.25	15.337	11.409	-385.00		-0.93	0.000
483.30	39.752	2.524	30.60	0.25	15.387	11.502	-436.58		-0.93	0.000
483.57	39.763	1.995	30.59	0.25	15.440	11.578	-440.34		-0.93	0.000
483.84	39.770	1.442	30.58	0.25	15.483	11.609	-427.13		-0.93	0.000
484.12	39.773	0.901	30.58	0.25	15.524	11.668	-411.71		-0.93	0.000
484.39	39.777	0.361	30.57	0.25	15.549	11.715	-379.90		-0.93	0.000
484.66	39.777	-0.180	30.57	0.25	15.574	11.743	-367.41		-0.93	0.000
484.93	39.777	-0.721	30.57	0.25	15.575	11.762	-351.36		-0.93	0.000
485.20	39.777	-1.274	30.57	0.25	15.585	11.774	-356.20		-0.93	0.000
485.47	39.777	-1.815	30.57	0.25	15.588	11.777	-364.09		-0.93	0.000
485.75	39.777	-2.344	30.57	0.25	15.587	11.777	-361.85		-0.93	0.000
486.02	39.766	-2.885	30.58	0.25	15.590	11.776	-337.84		-0.93	0.000
486.29	39.747	-3.413	30.60	0.25	15.578	11.776	-325.04		-0.93	0.000
486.57	39.725	-3.918	30.62	0.25	15.566	11.776	-317.92		-0.93	0.000
486.85	39.713	-4.435	30.64	0.25	15.534	11.776	-309.35		-0.93	0.000
487.12	39.689	-4.928	30.66	0.25	15.529	11.768	-282.10		-0.93	0.000
487.40	39.661	-5.421	30.69	0.25	15.530	11.761	-258.23		-0.93	0.000
487.68	39.633	-5.889	30.72	0.25	15.524	11.753	-189.94		-0.93	0.000
487.96	39.611	-6.346	30.74	0.25	15.512	11.746	-145.03		-0.93	0.000
488.23	39.580	-6.791	30.77	0.25	15.483	11.740	-43.29		-0.93	0.000
488.50	39.546	-7.224	30.80	0.25	15.484	11.729	3.23		-0.93	0.000
488.78	39.507	-7.620	30.84	0.25	15.423	11.704	51.99		-0.93	0.000
489.05	39.482	-7.993	30.87	0.25	15.344	11.652	55.79		-0.93	0.000
489.32	39.441	-8.353	30.91	0.25	15.262	11.561	31.37		-0.93	0.000
489.60	39.398	-8.678	30.95	0.25	15.146	11.503	13.77		-0.93	0.000
489.87	39.352	-8.990	31.00	0.25	15.005	11.378	-20.00		-0.93	0.000
490.15	39.323	-9.279	31.03	0.25	14.875	11.227	-30.94		-0.93	0.000
490.42	39.275	-9.543	31.07	0.25	14.736	11.061	-47.88		-0.93	0.000
490.70	39.225	-9.784	31.12	0.25	14.570	10.881	-60.32		-0.93	0.000
490.97	39.196	-9.988	31.15	0.25	14.422	10.691	-101.75		-0.93	0.000
491.25	39.143	-10.180	31.21	0.26	14.327	10.496	-138.46		-0.93	0.000
491.54	39.092	-10.337	31.26	0.26	14.146	10.296	-137.58		-0.93	0.000
491.81	39.041	-10.469	31.31	0.26	13.982	10.088	-101.92		-0.93	0.000
492.09	38.988	-10.565	31.36	0.26	13.805	9.878	-67.66		-0.93	0.000
492.37	38.954	-10.637	31.40	0.26	13.624	9.670	9.91		-0.93	0.000
492.63	38.900	-10.685	31.45	0.26	13.448	9.460	41.11		-0.93	0.000
492.91	38.847	-10.697	31.50	0.26	13.288	9.260	31.24		-0.93	0.000
493.18	38.811	-10.685	31.54	0.26	13.116	9.160	12.26		-0.93	0.000
493.46	38.756	-10.637	31.59	0.26	12.967	8.965	-8.65		-0.93	0.000
493.73	38.705	-10.565	31.65	0.26	12.806	8.781	5.56		-0.93	0.000
494.01	38.652	-10.469	31.70	0.26	12.651	8.600	50.34		-0.93	0.000
494.28	38.618	-10.337	31.73	0.26	12.582	8.424	57.29		-0.93	0.000
494.55	38.566	-10.180	31.78	0.26	12.434	8.253	37.22		-0.93	0.000
494.82	38.515	-10.000	31.83	0.26	12.304	8.099	7.92		-0.93	0.000
495.10	38.466	-9.796	31.88	0.26	12.142	7.951	-73.84		-0.93	0.000
495.38	38.433	-9.567	31.92	0.26	11.967	7.806	-120.91		-0.93	0.000
495.65	38.387	-9.303	31.96	0.26	11.779	7.646	-182.77		-0.93	0.000
495.93	38.342	-9.002	32.01	0.26	11.628	7.480	-190.72		-0.93	0.000
496.21	38.297	-8.690	32.05	0.26	11.489	7.401	-179.86		-0.93	0.000
496.49	38.269	-8.353	32.08	0.26	11.368	7.253	-190.06		-0.93	0.000
496.76	38.228	-8.005	32.12	0.26	11.270	7.125	-251.09		-0.93	0.000
497.04	38.189	-7.620	32.16	0.26	11.176	7.009	-327.48		-0.93	0.000
497.31	38.151	-7.212	32.20	0.26	11.139	6.911	-341.88		-0.93	0.000
497.59	38.128	-6.791	32.22	0.26	11.046	6.822	-302.89		-0.93	0.000
497.87	38.097	-6.358	32.25	0.26	10.972	6.740	-264.64		-0.93	0.000
498.15	38.066	-5.889	32.28	0.26	10.895	6.665	-171.96		-0.93	0.000
498.42	38.038	-5.421	32.31	0.26	10.841	6.596	-131.66		-0.93	0.000
498.70	38.020	-4.928	32.33	0.26	10.796	6.534	-61.35		-0.93	0.000
498.98	37.998	-4.423	32.35	0.26	10.755	6.480	-38.22		-0.93	0.000
499.25	37.982	-3.906	32.37	0.26	10.723	6.436	14.83		-0.93	0.000
499.52	37.959	-3.389	32.39	0.26	10.696	6.396	51.02		-0.93	0.000
499.79	37.950	-2.861	32.40	0.26	10.683	6.381	135.89		-0.93	0.000
500.07	37.938	-2.332	32.41	0.26	10.668	6.355	175.30		-0.93	0.000
500.34	37.931	-1.791	32.42	0.27	10.662	6.335	222.48		-0.93	0.000
500.61	37.923	-1.250	32.43	0.27	10.643	6.318	231.22		-0.93	0.000
500.88	37.920	-0.697	32.43	0.27	10.646	6.306	235.53		-0.93	0.000
501.14	37.918	-0.156	32.43	0.27	10.638	6.299	233.88		-0.93	0.000
501.42	37.918	0.373	32.43	0.27	10.637	6.298	226.19		-0.93	0.000
501.68	37.918	0.913	32.43	0.27	10.647	6.299	224.85		-0.93	0.000
501.95	37.918	1.454	32.43	0.27	10.652	6.300	220.99		-0.93	0.000
502.22	37.918	1.983	32.43	0.27	10.643	6.301	200.61		-0.93	0.000
502.49	37.925	2.524	32.42	0.27	10.653	6.305	119.91		-0.93	0.000
502.76	37.941	3.041	32.41	0.26	10.650	6.306	79.65		-0.93	0.000
503.03	37.950	3.558	32.40	0.26	10.644	6.305	7.98		-0.93	0.000
503.30	37.972	4.063	32.38	0.26	10.648	6.304	-30.26		-0.93	0.000
503.57	37.993	4.567	32.36	0.26	10.649	6.303	-122.43		-0.93	0.000
503.84	38.018	5.048	32.33	0.26	10.653	6.303	-177.02		-0.93	0.000
504.12	38.036	5.517	32.31	0.26	10.652	6.303	-289.99		-0.93	0.000
504.40	38.064	5.986	32.29	0.26	10.655	6.306	-341.63		-0.93	0.000
504.67	38.095	6.442	32.26	0.26	10.653	6.307	-420.79		-0.93	0.000
504.94	38.116	6.875	32.23	0.26	10.655	6.309	-452.79		-0.93	0.000
505.22	38.152	7.284	32.20	0.26	10.672	6.312	-455.03		-0.93	0.000
505.49	38.189	7.680	32.16	0.26	10.682	6.321	-433.92		-0.93	0.000
505.77	38.231	8.065	32.12	0.26	10.692	6.336	-388.92		-0.93	0.000
506.05	38.257	8.413	32.09	0.26	10.718	6.355	-376.05		-0.93	0.000
506.32	38.300	8.750	32.05	0.26	10.748	6.381	-355.49		-0.93	0.000
506.60	38.343	9.050	32.01	0.26	10.790	6.413	-336.19		-0.93	0.000
506.88	38.391	9.339	31.96	0.26	10.829	6.448	-260.43		-0.93	0.000
507.15	38.422	9.603	31.93	0.26	10.864	6.490	-207.82		-0.93	0.000
507.43	38.470	9.832	31.88	0.26	10.893	6.537	-111.03		-0.93	0.000
507.70	38.519	10.036	31.83	0.26	10.933	6.584	-75.62		-0.93	0.000
507.98	38.570	10.216	31.78	0.26	10.981	6.611	-56.39		-0.93	0.000
508.25	38.605	10.361	31.75	0.26	11.042	6.663	-60.69		-0.93	0.000
508.52	38.656	10.493	31.69	0.26	11.096	6.721	-57.62		-0.93	0.000
508.79	38.710	10.577	31.64	0.26	11.166	6.785	-18.47		-0.93	0.000
509.07	38.763	10.649	31.59	0.26	11.234	6.857	10.60		-0.93	0.000
509.34	38.798	10.685	31.55	0.26	11.318	6.939	57.15		-0.93	0.000
509.61	38.852	10.697	31.50	0.26	11.397	7.026	65.76		-0.93	0.000
509.88	38.906	10.673	31.44	0.26	11.447	7.125	61.18		-0.93	0.000
510.15	38.941	10.625	31.41	0.26	11.554	7.239	48.36		-0.93	0.000
510.42	38.993	10.553	31.36	0.26	11.663	7.297	22.90		-0.93	0.000
510.69	39.046	10.457	31.30	0.26	11.764	7.429	17.02		-0.93	0.000
510.96	39.082	10.325	31.27	0.26	11.892	7.572	-2.85		-0.93	0.000
511.23	39.132	10.168	31.22	0.26	12.090	7.726	-9.37		-0.93	0.000
511.51	39.182	9.988	31.17	0.25	12.289	7.894	-45.68		-0.93	0.000
511.78	39.233	9.784	31.12	0.25	12.499	8.096	-58.65		-0.93	0.000
512.05	39.264	9.543	31.09	0.25	12.627	8.330	-74.86		-0.93	0.000
512.33	39.310	9.291	31.04	0.25	12.833	8.572	-77.50		-0.93	0.000
512.61	39.356	8.990	30.99	0.25	13.048	8.821	-72.31		-0.93	0.000
512.88	39.400	8.678	30.95	0.25	13.252	9.066	-65.17		-0.93	0.000
513.15	39.430	8.341	30.92	0.25	13.474	9.307	-37.26		-0.93	0.000
513.43	39.469	7.981	30.88	0.25	13.678	9.424	-17.37		-0.93	0.000
513.70	39.507	7.608	30.84	0.25	13.879	9.652	32.29		-0.93	0.000
513.97	39.533	7.212	30.82	0.25	14.063	9.873	46.49		-0.93	0.000
514.24	39.569	6.803	30.78	0.25	14.248	10.071	58.29		-0.93	0.000
514.51	39.600	6.382	30.75	0.25	14.333	10.275	61.48		-0.93	0.000
514.78	39.620	5.925	30.73	0.25	14.488	10.459	64.93		-0.93	0.000
515.05	39.650	5.457	30.70	0.25	14.653	10.626	72.00		-0.93	0.000
515.33	39.674	4.988	30.68	0.25	14.775	10.790	88.93		-0.93	0.000
515.60	39.696	4.495	30.65	0.25	14.900	10.932	97.28		-0.93	0.000
515.87	39.707	3.990	30.64	0.25	15.019	10.998	111.57		-0.93	0.000
516.14	39.730	3.474	30.62	0.25	15.102	11.118	94.52		-0.93	0.000
516.41	39.746	2.957	30.60	0.25	15.189	11.226	33.62		-0.93	0.000
516.67	39.755	2.428	30.60	0.25	15.224	11.314	13.99		-0.93	0.000
516.94	39.764	1.899	30.59	0.25	15.285	11.396	-3.79		-0.93	0.000
517.21	39.769	1.370	30.58	0.25	15.349	11.462	-4.59		-0.93	0.000
517.48	39.775	0.841	30.57	0.25	15.382	11.507	-8.00		-0.93	0.000
517.74	39.777	0.300	30.57	0.25	15.394	11.530	-12.46		-0.93	0.000
518.01	39.777	-0.240	30.57	0.25	15.399	11.567	-19.74		-0.93	0.000
518.28	39.777	-0.769	30.57	0.25	15.424	11.583	-23.88		-0.93	0.000
518.55	39.777	-1.310	30.57	0.25	15.428	11.596	-27.47		-0.93	0.000
518.82	39.777	-1.851	30.57	0.25	15.424	11.600	-29.42		-0.93	0.000
519.09	39.777	-2.380	30.57	0.25	15.430	11.600	-8.42		-0.93	0.000
519.36	39.761	-2.921	30.59	0.25	15.424	11.599	58.75		-0.93	0.000
519.63	39.745	-3.425	30.61	0.25	15.418	11.598	101.14		-0.93	0.000
519.90	39.734	-3.942	30.62	0.25	15.392	11.598	173.96		-0.93	0.000
520.18	39.710	-4.447	30.64	0.25	15.379	11.597	196.27		-0.93	0.000
520.45	39.684	-4.940	30.67	0.25	15.372	11.595	216.79		-0.93	0.000
520.72	39.659	-5.421	30.69	0.25	15.365	11.588	170.17		-0.93	0.000
521.00	39.641	-5.889	30.71	0.25	15.371	11.583	131.44		-0.93	0.000
521.27	39.609	-6.334	30.74	0.25	15.357	11.575	30.96		-0.93	0.000
521.55	39.577	-6.779	30.77	0.25	15.347	11.568	-23.27		-0.93	0.000
521.83	39.541	-7.200	30.81	0.25	15.325	11.557	-139.18		-0.93	0.000
522.11	39.515	-7.596	30.83	0.25	15.259	11.536	-202.73		-0.93	0.000
522.39	39.477	-7.981	30.87	0.25	15.183	11.480	-322.11		-0.93	0.000
522.66	39.436	-8.353	30.91	0.25	15.089	11.386	-370.77		-0.93	0.000
522.94	39.392	-8.690	30.96	0.25	14.972	11.273	-430.48		-0.93	0.000
523.21	39.365	-9.002	30.98	0.25	14.838	11.129	-440.69		-0.93	0.000
523.50	39.318	-9.291	31.03	0.25	14.700	11.053	-402.09		-0.93	0.000
523.78	39.270	-9.555	31.08	0.25	14.545	10.888	-364.47		-0.93	0.000
524.06	39.223	-9.796	31.13	0.25	14.394	10.705	-311.47		-0.93	0.000
524.34	39.189	-10.012	31.16	0.25	14.226	10.513	-286.34		-0.93	0.000
524.62	39.138	-10.192	31.21	0.26	14.134	10.314	-232.17		-0.93	0.000
524.89	39.087	-10.349	31.26	0.26	13.962	10.113	-149.33		-0.93	0.000
525.17	39.036	-10.481	31.31	0.26	13.794	9.902	-104.55		-0.93	0.000
525.45	38.982	-10.577	31.37	0.26	13.624	9.694	-31.93		-0.93	0.000
525.72	38.948	-10.649	31.40	0.26	13.437	9.482	-7.53		-0.93	0.000
526.00	38.893	-10.685	31.46	0.26	13.263	9.273	19.46		-0.93	0.000
526.27	38.842	-10.697	31.51	0.26	13.092	9.067	18.14		-0.93	0.000
526.55	38.806	-10.673	31.54	0.26	12.940	8.866	-11.99		-0.93	0.000
526.82	38.752	-10.637	31.60	0.26	12.790	8.680	-28.07		-0.93	0.000
527.09	38.700	-10.553	31.65	0.26	12.623	8.497	-59.63		-0.93	0.000
527.37	38.646	-10.457	31.70	0.26	12.478	8.407	-77.52		-0.93	0.000
527.65	38.613	-10.325	31.74	0.26	12.411	8.232	-129.17		-0.93	0.000
527.93	38.561	-10.156	31.79	0.26	12.271	8.069	-150.55		-0.93	0.000
528.20	38.510	-9.976	31.84	0.26	12.142	7.919	-182.26		-0.93	0.000
528.48	38.463	-9.760	31.89	0.26	11.978	7.775	-184.00		-0.93	0.000
528.75	38.428	-9.519	31.92	0.26	11.798	7.635	-178.43		-0.93	0.000
529.03	38.382	-9.255	31.97	0.26	11.620	7.480	-171.96		-0.93	0.000
529.30	38.336	-8.966	32.01	0.26	11.485	7.317	-147.17		-0.93	0.000
529.58	38.293	-8.642	32.06	0.26	11.351	7.167	-123.35		-0.93	0.000
529.85	38.265	-8.305	32.08	0.26	11.232	7.034	-41.20		-0.93	0.000
530.13	38.223	-7.945	32.13	0.26	11.121	6.917	6.10		-0.93	0.000
530.40	38.184	-7.560	32.17	0.26	11.041	6.810	73.35		-0.93	0.000
530.67	38.148	-7.163	32.20	0.26	10.995	6.762	87.15		-0.93	0.000
530.95	38.125	-6.755	32.22	0.26	10.906	6.674	105.17		-0.93	0.000
531.22	38.092	-6.310	32.26	0.26	10.852	6.592	113.05		-0.93	0.000
531.49	38.064	-5.865	32.29	0.26	10.780	6.519	107.91		-0.93	0.000
531.78	38.043	-5.385	32.31	0.26	10.723	6.451	104.49		-0.93	0.000
532.05	38.018	-4.904	32.33	0.26	10.684	6.391	98.29		-0.93	0.000
532.32	37.995	-4.399	32.36	0.26	10.639	6.341	74.55		-0.93	0.000
532.59	37.977	-3.882	32.37	0.26	10.622	6.296	53.99		-0.93	0.000
532.87	37.966	-3.365	32.38	0.26	10.592	6.260	-2.98		-0.93	0.000
533.14	37.950	-2.837	32.40	0.26	10.578	6.232	-13.40		-0.93	0.000
533.41	37.938	-2.308	32.41	0.26	10.559	6.213	-1.82		-0.93	0.000
533.68	37.931	-1.767	32.42	0.27	10.544	6.203	7.16		-0.93	0.000
533.95	37.923	-1.214	32.43	0.27	10.536	6.190	1.87		-0.93	0.000
534.22	37.920	-0.673	32.43	0.27	10.536	6.179	-16.49		-0.93	0.000
534.49	37.918	-0.132	32.43	0.27	10.538	6.173	-89.30		-0.93	0.000
534.76	37.918	0.385	32.43	0.27	10.541	6.171	-141.31		-0.93	0.000
535.02	37.918	0.925	32.43	0.27	10.543	6.171	-242.27		-0.93	0.000
535.30	37.918	1.466	32.43	0.27	10.550	6.172	-272.00		-0.93	0.000
535.57	37.918	2.007	32.43	0.27	10.545	6.175	-299.26		-0.93	0.000
535.83	37.925	2.536	32.42	0.27	10.546	6.178	-310.00		-0.93	0.000
536.11	37.941	3.065	32.41	0.26	10.545	6.180	-353.21		-0.93	0.000
536.38	37.950	3.570	32.40	0.26	10.547	6.181	-382.94		-0.93	0.000
536.66	37.972	4.087	32.38	0.26	10.547	6.180	-419.67		-0.93	0.000
536.93	37.993	4.591	32.36	0.26	10.547	6.178	-413.14		-0.93	0.000
537.21	38.018	5.096	32.33	0.26	10.550	6.179	-348.43		-0.93	0.000
537.48	38.036	5.577	32.31	0.26	10.549	6.180	-297.44		-0.93	0.000
537.76	38.066	6.034	32.28	0.26	10.555	6.182	-198.31		-0.93	0.000
538.04	38.097	6.490	32.25	0.26	10.553	6.183	-151.18		-0.93	0.000
538.32	38.132	6.923	32.22	0.26	10.552	6.183	-97.60		-0.93	0.000
538.59	38.155	7.344	32.20	0.26	10.567	6.187	-78.34		-0.93	0.000
538.86	38.193	7.740	32.16	0.26	10.571	6.194	-48.90		-0.93	0.000
539.14	38.233	8.113	32.12	0.26	10.591	6.208	-32.07		-0.93	0.000
539.42	38.260	8.462	32.09	0.26	10.611	6.228	-16.10		-0.93	0.000
539.69	38.302	8.786	32.05	0.26	10.636	6.254	-16.13		-0.93	0.000
539.96	38.347	9.099	32.00	0.26	10.679	6.285	-36.42		-0.93	0.000
540.23	38.395	9.375	31.96	0.26	10.721	6.319	-53.88		-0.93	0.000
540.51	38.425	9.627	31.92	0.26	10.754	6.362	-96.26		-0.93	0.000
540.79	38.474	9.856	31.88	0.26	10.785	6.409	-115.76		-0.93	0.000
541.06	38.524	10.060	31.83	0.26	10.826	6.454	-135.98		-0.93	0.000
541.34	38.574	10.228	31.78	0.26	10.876	6.504	-141.09		-0.93	0.000
541.62	38.609	10.373	31.74	0.26	10.929	6.558	-143.20		-0.93	0.000
541.89	38.663	10.493	31.69	0.26	10.983	6.615	-134.34		-0.93	0.000
542.17	38.715	10.589	31.63	0.26	11.045	6.648	-125.56		-0.93	0.000
542.44	38.766	10.649	31.58	0.26	11.106	6.718	-102.15		-0.93	0.000
542.71	38.802	10.685	31.55	0.26	11.192	6.794	-89.86		-0.93	0.000
542.99	38.856	10.697	31.49	0.26	11.272	6.878	-53.33		-0.93	0.000
543.26	38.909	10.673	31.44	0.26	11.364	6.974	-31.11		-0.93	0.000
543.53	38.945	10.625	31.41	0.26	11.415	7.077	3.08		-0.93	0.000
543.80	38.998	10.541	31.35	0.26	11.524	7.193	-0.13		-0.93	0.000
544.07	39.051	10.433	31.30	0.26	11.631	7.329	-32.47		-0.93	0.000
544.34	39.102	10.300	31.25	0.26	11.760	7.473	-59.55		-0.93	0.000
544.62	39.137	10.144	31.21	0.26	11.938	7.629	-116.57		-0.93	0.000
544.90	39.187	9.952	31.16	0.25	12.143	7.714	-136.98		-0.93	0.000
545.17	39.236	9.736	31.11	0.25	12.354	7.910	-186.72		-0.93	0.000
545.44	39.266	9.495	31.08	0.25	12.570	8.138	-219.05		-0.93	0.000
545.72	39.315	9.231	31.03	0.25	12.781	8.380	-299.91		-0.93	0.000
546.00	39.361	8.930	30.99	0.25	12.882	8.629	-346.59		-0.93	0.000
546.27	39.404	8.618	30.95	0.25	13.105	8.873	-425.60		-0.93	0.000
546.55	39.432	8.281	30.92	0.25	13.309	9.116	-437.76		-0.93	0.000
546.82	39.471	7.909	30.88	0.25	13.519	9.346	-422.30		-0.93	0.000
547.09	39.511	7.524	30.84	0.25	13.713	9.574	-395.98		-0.93	0.000
547.36	39.547	7.127	30.80	0.25	13.909	9.789	-321.62		-0.93	0.000
547.64	39.571	6.719	30.78	0.25	14.090	9.990	-281.29		-0.93	0.000
547.91	39.602	6.274	30.75	0.25	14.249	10.087	-195.88		-0.93	0.000
548.18	39.632	5.817	30.72	0.25	14.400	10.277	-156.93		-0.93	0.000
548.46	39.659	5.349	30.69	0.25	14.556	10.450	-80.28		-0.93	0.000
548.73	39.677	4.868	30.67	0.25	14.612	10.610	-56.84		-0.93	0.000
549.01	39.700	4.363	30.65	0.25	14.736	10.755	-27.96		-0.93	0.000
549.28	39.716	3.858	30.63	0.25	14.861	10.884	-32.04		-0.93	0.000
549.55	39.733	3.329	30.62	0.25	14.940	11.005	-71.34		-0.93	0.000
549.82	39.743	2.812	30.61	0.25	15.026	11.108	-106.41		-0.93	0.000
550.10	39.759	2.272	30.59	0.25	15.091	11.190	-200.92		-0.93	0.000
550.37	39.768	1.743	30.58	0.25	15.137	11.262	-249.62		-0.93	0.000
550.64	39.771	1.190	30.58	0.25	15.194	11.297	-317.43		-0.93	0.000
550.91	39.774	0.637	30.58	0.25	15.207	11.349	-334.80		-0.93	0.000
551.18	39.777	0.096	30.57	0.25	15.229	11.386	-327.87		-0.93	0.000
551.45	39.777	-0.433	30.57	0.25	15.223	11.418	-313.50		-0.93	0.000
551.72	39.777	-0.986	30.57	0.25	15.247	11.432	-264.36		-0.93	0.000
551.99	39.777	-1.526	30.57	0.25	15.273	11.441	-244.10		-0.93	0.000
552.26	39.777	-2.055	30.57	0.25	15.258	11.444	-187.04		-0.93	0.000
552.54	39.769	-2.596	30.58	0.25	15.263	11.443	-144.90		-0.93	0.000
552.81	39.752	-3.125	30.60	0.25	15.257	11.442	-48.30		-0.93	0.000
553.08	39.738	-3.642	30.61	0.25	15.244	11.442	-10.41		-0.93	0.000
553.36	39.720	-4.159	30.63	0.25	15.230	11.441	24.98		-0.93	0.000
553.63	39.698	-4.651	30.65	0.25	15.216	11.440	19.84		-0.93	0.000
553.90	39.675	-5.144	30.67	0.25	15.210	11.435	-7.35		-0.93	0.000
554.17	39.657	-5.625	30.69	0.25	15.199	11.430	-21.05		-0.93	0.000
554.45	39.628	-6.082	30.72	0.25	15.206	11.422	-36.16		-0.93	0.000
554.72	39.595	-6.526	30.76	0.25	15.190	11.417	-27.05		-0.93	0.000
555.00	39.560	-6.959	30.79	0.25	15.165	11.409	-43.06		-0.93	0.000
555.28	39.537	-7.368	30.81	0.25	15.117	11.397	-107.92		-0.93	0.000
555.55	39.498	-7.764	30.85	0.25	15.039	11.359	-151.17		-0.93	0.000
555.83	39.460	-8.137	30.89	0.25	14.963	11.280	-216.77		-0.93	0.000
556.11	39.416	-8.486	30.93	0.25	14.846	11.171	-237.42		-0.93	0.000
556.39	39.388	-8.822	30.96	0.25	14.786	11.110	-250.26		-0.93	0.000
556.67	39.343	-9.123	31.01	0.25	14.648	10.966	-250.84		-0.93	0.000
556.94	39.298	-9.399	31.05	0.25	14.510	10.807	-265.58		-0.93	0.000
557.22	39.248	-9.651	31.10	0.25	14.350	10.634	-283.48		-0.93	0.000
557.49	39.216	-9.880	31.13	0.25	14.192	10.448	-327.63		-0.93	0.000
557.77	39.166	-10.084	31.18	0.25	14.029	10.253	-326.21		-0.93	0.000
558.05	39.115	-10.252	31.23	0.26	13.856	10.054	-271.26		-0.93	0.000
558.32	39.064	-10.397	31.29	0.26	13.681	9.841	-231.15		-0.93	0.000
558.60	39.029	-10.517	31.32	0.26	13.501	9.631	-136.38		-0.93	0.000
558.88	38.977	-10.601	31.37	0.26	13.322	9.420	-87.54		-0.93	0.000
559.15	38.923	-10.661	31.43	0.26	13.156	9.207	13.40		-0.93	0.000
559.43	38.870	-10.697	31.48	0.26	13.069	8.998	51.27		-0.93	0.000
559.70	38.834	-10.697	31.52	0.26	12.912	8.799	110.31		-0.93	0.000
559.97	38.782	-10.661	31.57	0.26	12.751	8.698	136.42		-0.93	0.000
560.25	38.728	-10.613	31.62	0.26	12.589	8.507	182.53		-0.93	0.000
560.52	38.677	-10.529	31.67	0.26	12.444	8.326	218.08		-0.93	0.000
560.80	38.641	-10.409	31.71	0.26	12.296	8.150	227.77		-0.93	0.000
561.08	38.589	-10.264	31.76	0.26	12.170	7.988	233.86		-0.93	0.000
561.35	38.538	-10.096	31.81	0.26	12.038	7.831	225.48		-0.93	0.000
561.62	38.488	-9.904	31.86	0.26	11.896	7.691	199.73		-0.93	0.000
561.89	38.454	-9.688	31.90	0.26	11.717	7.556	188.72		-0.93	0.000
562.17	38.407	-9.435	31.94	0.26	11.630	7.410	181.57		-0.93	0.000
562.44	38.363	-9.171	31.99	0.26	11.465	7.251	183.17		-0.93	0.000
562.72	38.331	-8.870	32.02	0.26	11.315	7.098	158.29		-0.93	0.000
562.99	38.287	-8.546	32.06	0.26	11.206	7.026	140.49		-0.93	0.000
563.27	38.245	-8.209	32.11	0.26	11.084	6.892	120.65		-0.93	0.000
563.54	38.206	-7.837	32.14	0.26	10.984	6.782	113.96		-0.93	0.000
563.81	38.181	-7.452	32.17	0.26	10.894	6.675	92.91		-0.93	0.000
564.09	38.145	-7.043	32.21	0.26	10.817	6.581	76.41		-0.93	0.000
564.36	38.111	-6.623	32.24	0.26	10.745	6.499	51.12		-0.93	0.000
564.64	38.078	-6.178	32.27	0.26	10.676	6.420	27.66		-0.93	0.000
564.91	38.060	-5.721	32.29	0.26	10.657	6.355	-32.69		-0.93	0.000
565.19	38.032	-5.240	32.32	0.26	10.600	6.293	-68.14		-0.93	0.000
565.46	38.009	-4.748	32.34	0.26	10.562	6.242	-134.05		-0.93	0.000
565.74	37.987	-4.243	32.36	0.26	10.518	6.195	-163.20		-0.93	0.000
566.02	37.972	-3.726	32.38	0.26	10.496	6.160	-231.10		-0.93	0.000
566.30	37.955	-3.197	32.40	0.26	10.485	6.142	-275.31		-0.93	0.000
566.58	37.943	-2.656	32.41	0.26	10.460	6.114	-348.24		-0.93	0.000
566.85	37.931	-2.115	32.42	0.27	10.447	6.092	-374.30		-0.93	0.000
567.12	37.925	-1.563	32.42	0.27	10.436	6.074	-381.56		-0.93	0.000
567.39	37.922	-1.010	32.43	0.27	10.438	6.063	-369.43		-0.93	0.000
567.67	37.918	-0.469	32.43	0.27	10.427	6.056	-362.43		-0.93	0.000
567.94	37.916	0.072	32.43	0.27	10.429	6.052	-345.85		-0.93	0.000
568.20	37.916	0.625	32.43	0.27	10.441	6.051	-330.22		-0.93	0.000
568.48	37.916	1.154	32.43	0.27	10.437	6.055	-279.86		-0.93	0.000
568.74	37.916	1.695	32.43	0.27	10.445	6.058	-247.13		-0.93	0.000
569.01	37.916	2.236	32.43	0.27	10.434	6.059	-213.02		-0.93	0.000
569.28	37.931	2.764	32.42	0.27	10.441	6.061	-132.65		-0.93	0.000
569.56	37.945	3.281	32.41	0.26	10.437	6.062	-99.10		-0.93	0.000
569.83	37.959	3.798	32.39	0.26	10.441	6.062	-50.37		-0.93	0.000
570.11	37.981	4.303	32.37	0.26	10.446	6.061	-33.00		-0.93	0.000
570.38	38.002	4.808	32.35	0.26	10.448	6.061	-23.22		-0.93	0.000
570.65	38.020	5.300	32.33	0.26	10.451	6.063	-0.06		-0.93	0.000
570.91	38.047	5.769	32.30	0.26	10.439	6.067	12.14		-0.93	0.000
571.18	38.079	6.214	32.27	0.26	10.451	6.072	29.11		-0.93	0.000
571.46	38.100	6.647	32.25	0.26	10.451	6.072	67.11		-0.93	0.000
571.73	38.136	7.055	32.21	0.26	10.455	6.073	89.54		-0.93	0.000
572.01	38.172	7.464	32.18	0.26	10.464	6.077	120.57		-0.93	0.000
572.28	38.209	7.849	32.14	0.26	10.470	6.086	104.00		-0.93	0.000
572.55	38.237	8.221	32.11	0.26	10.481	6.105	89.52		-0.93	0.000
572.83	38.278	8.558	32.07	0.26	10.517	6.128	69.04		-0.93	0.000
573.10	38.323	8.870	32.03	0.26	10.549	6.153	63.82		-0.93	0.000
573.36	38.352	9.171	32.00	0.26	10.577	6.189	34.51		-0.93	0.000
573.64	38.398	9.447	31.95	0.26	10.610	6.228	22.37		-0.93	0.000
573.91	38.447	9.688	31.90	0.26	10.664	6.248	-8.64		-0.93	0.000
574.18	38.479	9.904	31.87	0.26	10.692	6.293	-29.72		-0.93	0.000
574.45	38.529	10.096	31.82	0.26	10.747	6.340	-88.24		-0.93	0.000
574.73	38.581	10.264	31.77	0.26	10.766	6.388	-128.27		-0.93	0.000
575.00	38.631	10.409	31.72	0.26	10.810	6.438	-184.76		-0.93	0.000
575.28	38.666	10.517	31.68	0.26	10.876	6.498	-210.34		-0.93	0.000
575.55	38.719	10.601	31.63	0.26	10.933	6.560	-234.73		-0.93	0.000
575.83	38.772	10.661	31.58	0.26	10.997	6.631	-232.79		-0.93	0.000
576.10	38.825	10.697	31.52	0.26	11.066	6.704	-185.63		-0.93	0.000
576.37	38.863	10.697	31.49	0.26	11.153	6.791	-146.79		-0.93	0.000
576.68	38.915	10.661	31.43	0.26	11.236	6.886	-87.73		-0.93	0.000
576.93	38.969	10.613	31.38	0.26	11.337	6.935	-71.21		-0.93	0.000
577.20	39.002	10.505	31.35	0.26	11.442	7.047	-52.26		-0.93	0.000
577.47	39.056	10.409	31.29	0.26	11.494	7.173	-30.47		-0.93	0.000
577.74	39.107	10.264	31.24	0.26	11.623	7.313	34.62		-0.93	0.000
578.02	39.157	10.096	31.19	0.26	11.793	7.464	77.79		-0.93	0.000
578.29	39.191	9.904	31.16	0.25	11.998	7.639	159.58		-0.93	0.000
578.56	39.241	9.675	31.11	0.25	12.217	7.845	184.03		-0.93	0.000
578.83	39.287	9.435	31.06	0.25	12.426	8.075	191.44		-0.93	0.000
579.11	39.333	9.159	31.02	0.25	12.630	8.324	179.25		-0.93	0.000
579.38	39.365	8.870	30.98	0.25	12.853	8.566	127.56		-0.93	0.000
579.65	39.407	8.546	30.94	0.25	13.055	8.688	94.86		-0.93	0.000
579.93	39.451	8.209	30.90	0.25	13.152	8.930	51.18		-0.93	0.000
580.20	39.477	7.849	30.87	0.25	13.363	9.162	23.47		-0.93	0.000
580.47	39.515	7.452	30.83	0.25	13.555	9.390	-47.98		-0.93	0.000
580.75	39.551	7.067	30.80	0.25	13.741	9.604	-89.98		-0.93	0.000
581.02	39.583	6.635	30.77	0.25	13.923	9.810	-180.83		-0.93	0.000
581.29	39.606	6.190	30.74	0.25	14.093	10.002	-225.15		-0.93	0.000
581.57	39.636	5.733	30.71	0.25	14.252	10.184	-297.03		-0.93	0.000
581.84	39.664	5.264	30.69	0.25	14.387	10.355	-328.81		-0.93	0.000
582.11	39.680	4.772	30.67	0.25	14.523	10.510	-376.44		-0.93	0.000
582.39	39.701	4.267	30.65	0.25	14.577	10.652	-389.29		-0.93	0.000
582.66	39.720	3.762	30.63	0.25	14.690	10.715	-389.71		-0.93	0.000
582.94	39.736	3.233	30.61	0.25	14.795	10.832	-376.32		-0.93	0.000
583.21	39.745	2.704	30.61	0.25	14.877	10.933	-319.98		-0.93	0.000
583.48	39.755	2.175	30.60	0.25	14.924	11.020	-289.13		-0.93	0.000
583.75	39.764	1.635	30.59	0.25	14.982	11.095	-233.15		-0.93	0.000
584.02	39.771	1.082	30.58	0.25	15.038	11.153	-209.40		-0.93	0.000
584.29	39.773	0.541	30.58	0.25	15.044	11.206	-173.22		-0.93	0.000
