Name           :	1mgmlAuDDT_O12	
User           :	Isaac	
Date           :	8/6/2014	

Probe1         :	Wilhelmy	
Perimeter      : 	39.240	

Probe2         :	Wilhelmy	
Perimeter      : 	39.240	

Trough         :	Extra Small	
Width          :	50.0	
Area           :	7035.0	
Symmetric comp :	True	

Subphase       :	Water	
Surface tension:	72.80	
pH             :	7.00	
Temperature    :	19.5	

Addition       :		
Concentration  :		
Unit           :	Unknown         	

Substance1     :	Au NP	
MW             :	197.0	
Concentration  :	1.000	
Unit           :	mg/ml           	
Volume         :	400.00	

Substance2     :		
MW             : 		
Concentration  : 		
Unit           :	Unknown         	
Volume         : 		

Substrate      :		
Height         : 		
Shape          : 	Rectangle       	
Width          :		
Thickness      :		


t[s]	Bpos	Bspd	A[cm²]	Mma[Å²]	P1[mN/m]	P2[mN/m]	T[°C]	SP[V]	pH	AD[V]
20.80	17.779	17.849	52.57	0.43	5.948	3.860	-119.11		-0.74	0.000
21.07	17.839	17.837	52.51	0.43	6.078	3.871	-188.54		-0.74	0.000
21.34	17.929	17.764	52.42	0.43	6.184	3.905	-206.92		-0.74	0.000
21.62	18.019	17.656	52.33	0.43	6.321	3.978	-232.92		-0.74	0.000
21.89	18.075	17.488	52.28	0.43	6.434	4.065	-247.21		-0.74	0.000
22.16	18.162	17.284	52.19	0.43	6.531	4.157	-283.50		-0.74	0.000
22.44	18.249	17.031	52.10	0.43	6.578	4.238	-308.42		-0.74	0.000
22.71	18.333	16.731	52.02	0.43	6.684	4.320	-342.84		-0.74	0.000
22.98	18.386	16.394	51.96	0.42	6.759	4.362	-333.88		-0.74	0.000
23.25	18.470	16.010	51.88	0.42	6.852	4.433	-257.00		-0.74	0.000
23.52	18.547	15.577	51.80	0.42	6.928	4.503	-201.84		-0.74	0.000
23.80	18.599	15.108	51.75	0.42	6.998	4.571	-103.47		-0.74	0.000
24.07	18.675	14.603	51.68	0.42	7.092	4.632	-94.05		-0.74	0.000
24.34	18.744	14.050	51.61	0.42	7.147	4.696	-130.44		-0.74	0.000
24.62	18.813	13.474	51.54	0.42	7.230	4.760	-159.27		-0.74	0.000
24.89	18.858	12.849	51.49	0.42	7.291	4.813	-197.19		-0.74	0.000
25.16	18.920	12.200	51.43	0.42	7.309	4.872	-193.75		-0.74	0.000
25.44	18.980	11.502	51.37	0.42	7.390	4.926	-167.76		-0.74	0.000
25.71	19.017	10.793	51.33	0.42	7.426	4.978	-153.02		-0.74	0.000
25.98	19.071	10.048	51.28	0.42	7.490	5.008	-163.34		-0.74	0.000
26.25	19.117	9.279	51.23	0.42	7.544	5.046	-191.52		-0.74	0.000
26.53	19.161	8.474	51.19	0.42	7.603	5.083	-269.54		-0.74	0.000
26.80	19.190	7.656	51.16	0.42	7.605	5.113	-308.72		-0.74	0.000
27.07	19.226	6.815	51.12	0.42	7.646	5.138	-327.46		-0.74	0.000
27.35	19.256	5.962	51.09	0.42	7.658	5.158	-311.66		-0.74	0.000
27.62	19.276	5.096	51.07	0.42	7.634	5.175	-267.42		-0.74	0.000
27.89	19.301	4.195	51.05	0.42	7.676	5.193	-254.35		-0.74	0.000
28.16	19.318	3.293	51.03	0.42	7.662	5.199	-259.82		-0.74	0.000
28.43	19.329	2.404	51.02	0.42	7.668	5.200	-266.11		-0.74	0.000
28.71	19.336	1.490	51.01	0.42	7.634	5.201	-264.36		-0.74	0.000
28.97	19.339	0.577	51.01	0.42	7.625	5.178	-249.66		-0.74	0.000
29.25	19.339	-0.325	51.01	0.42	7.595	5.154	-195.24		-0.74	0.000
29.51	19.339	-1.226	51.01	0.42	7.562	5.120	-163.14		-0.74	0.000
29.78	19.339	-2.139	51.01	0.42	7.557	5.093	-100.56		-0.74	0.000
30.05	19.338	-3.029	51.01	0.42	7.521	5.063	-73.26		-0.74	0.000
30.33	19.325	-3.918	51.03	0.42	7.499	5.041	-43.28		-0.74	0.000
30.60	19.298	-4.796	51.05	0.42	7.473	5.018	-19.04		-0.74	0.000
30.87	19.272	-5.685	51.08	0.42	7.445	5.006	34.61		-0.74	0.000
31.14	19.240	-6.538	51.11	0.42	7.401	4.983	61.90		-0.74	0.000
31.41	19.217	-7.380	51.13	0.42	7.348	4.952	77.33		-0.74	0.000
31.68	19.179	-8.197	51.17	0.42	7.314	4.912	59.74		-0.74	0.000
31.95	19.135	-9.002	51.21	0.42	7.297	4.861	11.38		-0.74	0.000
32.22	19.103	-9.772	51.25	0.42	7.271	4.818	-11.95		-0.74	0.000
32.50	19.053	-10.529	51.30	0.42	7.260	4.792	-23.97		-0.74	0.000
32.77	18.998	-11.250	51.35	0.42	7.220	4.770	-28.31		-0.74	0.000
33.05	18.940	-11.947	51.41	0.42	7.148	4.741	-25.86		-0.74	0.000
33.32	18.898	-12.608	51.45	0.42	7.064	4.716	-17.93		-0.74	0.000
33.59	18.834	-13.257	51.52	0.42	6.983	4.651	2.37		-0.74	0.000
33.86	18.765	-13.858	51.59	0.42	6.878	4.575	19.69		-0.74	0.000
34.14	18.718	-14.423	51.63	0.42	6.788	4.483	56.61		-0.74	0.000
34.41	18.647	-14.940	51.70	0.42	6.747	4.394	116.45		-0.74	0.000
34.69	18.570	-15.421	51.78	0.42	6.637	4.300	156.00		-0.74	0.000
34.97	18.492	-15.865	51.86	0.42	6.549	4.212	225.41		-0.74	0.000
35.25	18.438	-16.274	51.91	0.42	6.446	4.125	250.07		-0.74	0.000
35.52	18.354	-16.635	52.00	0.43	6.357	4.038	253.53		-0.74	0.000
35.79	18.270	-16.959	52.08	0.43	6.260	3.958	235.20		-0.74	0.000
36.06	18.185	-17.224	52.16	0.43	6.163	3.880	173.03		-0.74	0.000
36.34	18.127	-17.440	52.22	0.43	6.077	3.805	132.32		-0.74	0.000
36.61	18.042	-17.608	52.31	0.43	5.927	3.764	53.25		-0.74	0.000
36.88	17.952	-17.740	52.40	0.43	5.801	3.683	18.17		-0.74	0.000
37.15	17.893	-17.825	52.46	0.43	5.739	3.586	-60.73		-0.74	0.000
37.43	17.802	-17.849	52.55	0.43	5.600	3.489	-101.86		-0.74	0.000
37.70	17.716	-17.837	52.63	0.43	5.491	3.397	-170.63		-0.74	0.000
37.98	17.625	-17.776	52.73	0.43	5.384	3.312	-195.27		-0.74	0.000
38.25	17.567	-17.668	52.78	0.43	5.284	3.235	-210.34		-0.74	0.000
38.52	17.478	-17.512	52.87	0.43	5.177	3.164	-191.27		-0.74	0.000
38.80	17.392	-17.308	52.96	0.43	5.091	3.100	-129.78		-0.74	0.000
39.08	17.304	-17.067	53.05	0.43	4.999	3.041	-93.48		-0.74	0.000
39.35	17.249	-16.767	53.10	0.43	4.923	3.016	-20.09		-0.74	0.000
39.62	17.166	-16.430	53.18	0.43	4.854	2.968	22.12		-0.74	0.000
39.89	17.085	-16.046	53.26	0.44	4.820	2.926	99.33		-0.74	0.000
40.17	17.031	-15.625	53.32	0.44	4.758	2.891	130.94		-0.74	0.000
40.44	16.956	-15.156	53.39	0.44	4.711	2.859	152.95		-0.74	0.000
40.72	16.881	-14.639	53.47	0.44	4.662	2.830	143.27		-0.74	0.000
41.00	16.808	-14.099	53.54	0.44	4.618	2.806	110.78		-0.74	0.000
41.27	16.762	-13.510	53.59	0.44	4.580	2.784	94.22		-0.74	0.000
41.54	16.698	-12.885	53.65	0.44	4.540	2.764	64.74		-0.74	0.000
41.81	16.635	-12.236	53.71	0.44	4.506	2.743	57.30		-0.74	0.000
42.08	16.595	-11.550	53.75	0.44	4.485	2.725	26.97		-0.74	0.000
42.35	16.538	-10.829	53.81	0.44	4.460	2.718	3.01		-0.74	0.000
42.62	16.485	-10.108	53.86	0.44	4.440	2.705	-73.55		-0.74	0.000
42.90	16.439	-9.339	53.91	0.44	4.415	2.695	-124.31		-0.74	0.000
43.17	16.408	-8.558	53.94	0.44	4.388	2.681	-199.12		-0.74	0.000
43.44	16.367	-7.728	53.98	0.44	4.370	2.670	-220.71		-0.74	0.000
43.72	16.331	-6.899	54.02	0.44	4.347	2.658	-228.21		-0.74	0.000
43.99	16.311	-6.046	54.04	0.44	4.331	2.651	-224.88		-0.74	0.000
44.26	16.284	-5.156	54.07	0.44	4.319	2.639	-226.79		-0.74	0.000
44.54	16.260	-4.279	54.09	0.44	4.306	2.630	-241.78		-0.74	0.000
44.81	16.244	-3.389	54.11	0.44	4.304	2.624	-298.46		-0.74	0.000
45.08	16.235	-2.476	54.11	0.44	4.294	2.622	-350.08		-0.74	0.000
45.35	16.226	-1.538	54.12	0.44	4.295	2.618	-365.29		-0.74	0.000
45.63	16.221	-0.637	54.13	0.44	4.289	2.613	-353.40		-0.74	0.000
45.89	16.221	0.264	54.13	0.44	4.279	2.612	-328.83		-0.74	0.000
46.16	16.221	1.178	54.13	0.44	4.281	2.609	-308.68		-0.74	0.000
46.43	16.221	2.067	54.13	0.44	4.281	2.608	-289.64		-0.74	0.000
46.69	16.221	2.957	54.13	0.44	4.277	2.609	-295.05		-0.74	0.000
46.97	16.242	3.846	54.11	0.44	4.277	2.610	-340.23		-0.74	0.000
47.24	16.263	4.724	54.09	0.44	4.273	2.610	-369.60		-0.74	0.000
47.52	16.278	5.601	54.07	0.44	4.272	2.608	-409.44		-0.74	0.000
47.79	16.308	6.454	54.04	0.44	4.276	2.608	-416.71		-0.74	0.000
48.06	16.343	7.320	54.01	0.44	4.280	2.610	-407.06		-0.74	0.000
48.33	16.384	8.137	53.97	0.44	4.276	2.611	-396.03		-0.74	0.000
48.60	16.411	8.942	53.94	0.44	4.282	2.611	-383.89		-0.74	0.000
48.88	16.460	9.724	53.89	0.44	4.276	2.612	-383.12		-0.74	0.000
49.15	16.508	10.481	53.84	0.44	4.276	2.612	-359.73		-0.74	0.000
49.43	16.545	11.226	53.80	0.44	4.294	2.615	-309.59		-0.74	0.000
49.71	16.602	11.923	53.75	0.44	4.293	2.618	-273.40		-0.74	0.000
49.98	16.663	12.596	53.69	0.44	4.304	2.621	-191.43		-0.74	0.000
50.25	16.728	13.233	53.62	0.44	4.310	2.627	-148.33		-0.74	0.000
50.52	16.772	13.834	53.58	0.44	4.327	2.633	-52.53		-0.74	0.000
50.80	16.844	14.399	53.51	0.44	4.340	2.641	-6.60		-0.74	0.000
51.07	16.917	14.916	53.43	0.44	4.349	2.648	70.18		-0.74	0.000
51.34	16.993	15.409	53.36	0.44	4.363	2.658	107.29		-0.74	0.000
51.61	17.045	15.853	53.30	0.44	4.378	2.667	175.15		-0.74	0.000
51.88	17.126	16.250	53.22	0.44	4.393	2.680	208.02		-0.74	0.000
52.15	17.210	16.599	53.14	0.43	4.402	2.690	268.66		-0.74	0.000
52.42	17.262	16.923	53.09	0.43	4.428	2.696	280.18		-0.74	0.000
52.69	17.351	17.188	53.00	0.43	4.441	2.712	270.63		-0.74	0.000
52.96	17.436	17.404	52.91	0.43	4.457	2.723	261.92		-0.74	0.000
53.23	17.493	17.596	52.86	0.43	4.503	2.741	256.25		-0.74	0.000
53.50	17.583	17.716	52.77	0.43	4.540	2.758	259.90		-0.74	0.000
53.78	17.671	17.813	52.68	0.43	4.562	2.786	272.30		-0.74	0.000
54.04	17.729	17.849	52.62	0.43	4.614	2.814	276.44		-0.74	0.000
54.31	17.819	17.849	52.53	0.43	4.666	2.848	280.48		-0.74	0.000
54.59	17.908	17.788	52.44	0.43	4.719	2.886	265.08		-0.74	0.000
54.86	17.998	17.692	52.35	0.43	4.784	2.904	214.22		-0.74	0.000
55.13	18.057	17.548	52.29	0.43	4.861	2.948	192.36		-0.74	0.000
55.40	18.144	17.356	52.21	0.43	4.940	2.998	195.29		-0.74	0.000
55.67	18.230	17.127	52.12	0.43	5.035	3.054	207.97		-0.74	0.000
55.94	18.286	16.851	52.06	0.43	5.083	3.121	202.59		-0.74	0.000
56.21	18.370	16.526	51.98	0.42	5.187	3.195	179.46		-0.74	0.000
56.49	18.452	16.154	51.90	0.42	5.297	3.280	99.93		-0.74	0.000
56.76	18.504	15.745	51.85	0.42	5.419	3.365	46.41		-0.74	0.000
57.02	18.581	15.288	51.77	0.42	5.531	3.456	-75.52		-0.74	0.000
57.30	18.657	14.796	51.69	0.42	5.661	3.501	-139.42		-0.74	0.000
57.57	18.730	14.279	51.62	0.42	5.791	3.590	-188.13		-0.74	0.000
57.85	18.775	13.690	51.58	0.42	5.918	3.682	-184.59		-0.74	0.000
58.12	18.843	13.089	51.51	0.42	6.049	3.772	-171.10		-0.74	0.000
58.39	18.906	12.452	51.44	0.42	6.105	3.869	-165.09		-0.74	0.000
58.66	18.947	11.779	51.40	0.42	6.222	3.963	-161.50		-0.74	0.000
58.94	19.004	11.070	51.35	0.42	6.345	4.054	-157.18		-0.74	0.000
59.21	19.057	10.337	51.29	0.42	6.449	4.142	-152.37		-0.74	0.000
59.49	19.107	9.567	51.24	0.42	6.557	4.222	-147.21		-0.74	0.000
59.76	19.139	8.774	51.21	0.42	6.646	4.296	-122.63		-0.74	0.000
60.03	19.179	7.969	51.17	0.42	6.735	4.333	-107.20		-0.74	0.000
60.31	19.216	7.139	51.13	0.42	6.821	4.394	-72.70		-0.74	0.000
60.58	19.239	6.286	51.11	0.42	6.877	4.454	-69.42		-0.74	0.000
60.85	19.268	5.409	51.08	0.42	6.909	4.507	-89.21		-0.74	0.000
61.12	19.293	4.531	51.06	0.42	6.961	4.552	-108.24		-0.74	0.000
61.39	19.309	3.630	51.04	0.42	7.003	4.589	-155.93		-0.74	0.000
61.67	19.321	2.728	51.03	0.42	7.035	4.617	-168.71		-0.74	0.000
61.94	19.330	1.827	51.02	0.42	7.055	4.639	-190.93		-0.74	0.000
62.21	19.339	0.913	51.01	0.42	7.062	4.653	-188.39		-0.74	0.000
62.47	19.339	0.012	51.01	0.42	7.061	4.658	-175.72		-0.74	0.000
62.74	19.339	-0.889	51.01	0.42	7.055	4.661	-173.88		-0.74	0.000
63.01	19.339	-1.779	51.01	0.42	7.050	4.656	-158.84		-0.74	0.000
63.28	19.339	-2.668	51.01	0.42	7.053	4.645	-161.31		-0.74	0.000
63.55	19.325	-3.570	51.03	0.42	7.040	4.634	-188.87		-0.74	0.000
63.82	19.303	-4.447	51.05	0.42	7.023	4.624	-215.15		-0.74	0.000
64.10	19.280	-5.337	51.07	0.42	7.007	4.614	-278.25		-0.74	0.000
64.37	19.258	-6.202	51.09	0.42	6.988	4.598	-307.43		-0.74	0.000
64.64	19.225	-7.055	51.13	0.42	6.943	4.577	-343.51		-0.74	0.000
64.92	19.188	-7.885	51.16	0.42	6.904	4.542	-340.30		-0.74	0.000
65.19	19.159	-8.714	51.19	0.42	6.901	4.520	-325.63		-0.74	0.000
65.46	19.115	-9.507	51.24	0.42	6.890	4.483	-303.64		-0.74	0.000
65.74	19.065	-10.276	51.29	0.42	6.884	4.458	-251.16		-0.74	0.000
66.02	19.011	-11.010	51.34	0.42	6.858	4.441	-227.79		-0.74	0.000
66.30	18.972	-11.719	51.38	0.42	6.789	4.421	-177.83		-0.74	0.000
66.57	18.912	-12.404	51.44	0.42	6.721	4.382	-146.94		-0.74	0.000
66.85	18.849	-13.065	51.50	0.42	6.642	4.321	-60.37		-0.74	0.000
67.11	18.783	-13.678	51.57	0.42	6.548	4.245	-12.21		-0.74	0.000
67.38	18.736	-14.255	51.61	0.42	6.467	4.161	74.64		-0.74	0.000
67.66	18.663	-14.784	51.69	0.42	6.374	4.078	100.76		-0.74	0.000
67.93	18.588	-15.264	51.76	0.42	6.273	4.030	112.41		-0.74	0.000
68.20	18.536	-15.721	51.81	0.42	6.229	3.943	108.34		-0.74	0.000
68.48	18.456	-16.142	51.89	0.42	6.134	3.857	96.77		-0.74	0.000
68.75	18.375	-16.502	51.98	0.42	6.044	3.771	96.89		-0.74	0.000
69.02	18.290	-16.839	52.06	0.43	5.959	3.690	113.00		-0.74	0.000
69.29	18.235	-17.115	52.11	0.43	5.872	3.612	129.37		-0.74	0.000
69.58	18.148	-17.356	52.20	0.43	5.790	3.536	143.97		-0.74	0.000
69.85	18.062	-17.548	52.29	0.43	5.660	3.461	137.16		-0.74	0.000
70.13	17.972	-17.704	52.38	0.43	5.528	3.381	115.97		-0.74	0.000
70.40	17.913	-17.800	52.44	0.43	5.391	3.287	115.04		-0.74	0.000
70.67	17.826	-17.849	52.52	0.43	5.276	3.196	146.91		-0.74	0.000
70.96	17.735	-17.849	52.61	0.43	5.229	3.110	187.70		-0.74	0.000
71.23	17.677	-17.800	52.67	0.43	5.116	3.073	204.98		-0.74	0.000
71.50	17.586	-17.704	52.76	0.43	5.015	3.003	205.17		-0.74	0.000
71.78	17.499	-17.560	52.85	0.43	4.926	2.938	198.84		-0.74	0.000
72.05	17.411	-17.380	52.94	0.43	4.828	2.879	167.23		-0.74	0.000
72.32	17.353	-17.139	53.00	0.43	4.747	2.827	147.07		-0.74	0.000
72.59	17.270	-16.863	53.08	0.43	4.684	2.780	127.88		-0.74	0.000
72.86	17.185	-16.538	53.16	0.43	4.620	2.738	124.33		-0.74	0.000
73.14	17.131	-16.178	53.22	0.44	4.568	2.701	110.78		-0.74	0.000
73.41	17.051	-15.769	53.30	0.44	4.546	2.672	96.20		-0.74	0.000
73.68	16.974	-15.312	53.38	0.44	4.501	2.647	32.69		-0.74	0.000
73.95	16.897	-14.820	53.45	0.44	4.465	2.636	-5.51		-0.74	0.000
74.23	16.849	-14.291	53.50	0.44	4.432	2.617	-58.07		-0.74	0.000
74.50	16.780	-13.726	53.57	0.44	4.400	2.597	-75.24		-0.74	0.000
74.77	16.713	-13.125	53.64	0.44	4.377	2.583	-94.78		-0.74	0.000
75.05	16.670	-12.476	53.68	0.44	4.352	2.569	-96.95		-0.74	0.000
75.32	16.608	-11.803	53.74	0.44	4.319	2.556	-97.19		-0.74	0.000
75.60	16.552	-11.094	53.80	0.44	4.300	2.545	-106.44		-0.74	0.000
75.87	16.498	-10.361	53.85	0.44	4.295	2.536	-131.13		-0.74	0.000
76.14	16.463	-9.591	53.89	0.44	4.279	2.530	-147.14		-0.74	0.000
76.42	16.419	-8.798	53.93	0.44	4.265	2.522	-168.56		-0.74	0.000
76.70	16.378	-7.993	53.97	0.44	4.248	2.512	-160.84		-0.74	0.000
76.97	16.339	-7.139	54.01	0.44	4.234	2.509	-152.09		-0.74	0.000
77.25	16.317	-6.286	54.03	0.44	4.224	2.505	-145.98		-0.74	0.000
77.52	16.289	-5.409	54.06	0.44	4.212	2.500	-129.59		-0.74	0.000
77.79	16.263	-4.519	54.09	0.44	4.208	2.494	-130.82		-0.74	0.000
78.06	16.244	-3.618	54.11	0.44	4.201	2.490	-142.17		-0.74	0.000
78.33	16.235	-2.728	54.11	0.44	4.192	2.488	-149.32		-0.74	0.000
78.61	16.224	-1.815	54.13	0.44	4.202	2.486	-113.82		-0.74	0.000
78.87	16.220	-0.925	54.13	0.44	4.187	2.484	-86.82		-0.74	0.000
79.14	16.220	0.000	54.13	0.44	4.191	2.482	-11.29		-0.74	0.000
79.40	16.220	0.889	54.13	0.44	4.191	2.482	20.23		-0.74	0.000
79.66	16.220	1.779	54.13	0.44	4.192	2.483	64.66		-0.74	0.000
79.93	16.229	2.644	54.12	0.44	4.191	2.484	82.01		-0.74	0.000
80.20	16.247	3.522	54.10	0.44	4.190	2.485	107.56		-0.74	0.000
80.47	16.256	4.399	54.09	0.44	4.189	2.486	119.27		-0.74	0.000
80.74	16.285	5.276	54.06	0.44	4.190	2.487	132.38		-0.74	0.000
81.01	16.316	6.130	54.03	0.44	4.195	2.488	127.56		-0.74	0.000
81.28	16.337	6.971	54.01	0.44	4.198	2.490	106.63		-0.74	0.000
81.55	16.372	7.800	53.98	0.44	4.184	2.492	94.61		-0.74	0.000
81.81	16.413	8.618	53.94	0.44	4.197	2.493	67.29		-0.74	0.000
82.08	16.458	9.399	53.89	0.44	4.192	2.495	40.69		-0.74	0.000
82.35	16.493	10.144	53.86	0.44	4.194	2.496	-13.73		-0.74	0.000
82.62	16.545	10.877	53.80	0.44	4.209	2.496	-38.80		-0.74	0.000
82.90	16.601	11.587	53.75	0.44	4.206	2.502	-96.35		-0.74	0.000
83.17	16.640	12.260	53.71	0.44	4.222	2.506	-130.34		-0.74	0.000
83.44	16.703	12.909	53.65	0.44	4.224	2.512	-201.72		-0.74	0.000
83.71	16.770	13.522	53.58	0.44	4.239	2.517	-222.72		-0.74	0.000
83.99	16.816	14.099	53.53	0.44	4.250	2.524	-238.16		-0.74	0.000
84.26	16.888	14.651	53.46	0.44	4.257	2.532	-248.29		-0.74	0.000
84.54	16.962	15.156	53.39	0.44	4.273	2.539	-298.88		-0.74	0.000
84.81	17.039	15.625	53.31	0.44	4.283	2.549	-331.31		-0.74	0.000
85.08	17.093	16.058	53.26	0.44	4.296	2.562	-382.61		-0.74	0.000
85.35	17.175	16.430	53.18	0.43	4.316	2.572	-405.71		-0.74	0.000
85.63	17.257	16.767	53.09	0.43	4.334	2.586	-402.60		-0.74	0.000
85.90	17.311	17.067	53.04	0.43	4.342	2.596	-378.72		-0.74	0.000
86.17	17.399	17.308	52.95	0.43	4.368	2.600	-312.98		-0.74	0.000
86.44	17.485	17.512	52.86	0.43	4.398	2.612	-276.71		-0.74	0.000
86.71	17.572	17.668	52.78	0.43	4.429	2.626	-208.07		-0.74	0.000
86.99	17.631	17.776	52.72	0.43	4.458	2.650	-170.56		-0.74	0.000
87.26	17.721	17.837	52.63	0.43	4.496	2.673	-85.87		-0.74	0.000
87.53	17.811	17.849	52.54	0.43	4.547	2.701	-58.44		-0.74	0.000
87.80	17.870	17.825	52.48	0.43	4.594	2.733	-15.94		-0.74	0.000
88.07	17.960	17.740	52.39	0.43	4.646	2.766	9.31		-0.74	0.000
88.34	18.047	17.620	52.30	0.43	4.709	2.803	57.73		-0.74	0.000
88.61	18.106	17.452	52.24	0.43	4.779	2.826	69.81		-0.74	0.000
88.88	18.192	17.236	52.16	0.43	4.853	2.871	77.41		-0.74	0.000
89.15	18.276	16.983	52.07	0.43	4.905	2.927	80.62		-0.74	0.000
89.42	18.362	16.671	51.99	0.43	4.993	2.985	89.45		-0.74	0.000
89.69	18.417	16.322	51.93	0.42	5.089	3.057	86.41		-0.74	0.000
89.96	18.498	15.937	51.85	0.42	5.205	3.133	57.96		-0.74	0.000
90.23	18.575	15.505	51.78	0.42	5.311	3.217	41.70		-0.74	0.000
90.50	18.626	15.036	51.72	0.42	5.422	3.301	65.43		-0.74	0.000
90.76	18.701	14.531	51.65	0.42	5.550	3.344	88.00		-0.74	0.000
91.04	18.771	13.990	51.58	0.42	5.610	3.434	136.01		-0.74	0.000
91.31	18.818	13.413	51.53	0.42	5.735	3.529	154.38		-0.74	0.000
91.58	18.884	12.788	51.47	0.42	5.865	3.625	182.81		-0.74	0.000
91.85	18.945	12.127	51.40	0.42	5.981	3.718	193.78		-0.74	0.000
92.13	18.984	11.442	51.37	0.42	6.100	3.810	186.18		-0.74	0.000
92.40	19.040	10.721	51.31	0.42	6.214	3.900	161.09		-0.74	0.000
92.67	19.093	9.976	51.26	0.42	6.323	3.987	123.08		-0.74	0.000
92.94	19.139	9.207	51.21	0.42	6.417	4.071	118.83		-0.74	0.000
93.21	19.167	8.425	51.18	0.42	6.502	4.108	115.18		-0.74	0.000
93.48	19.208	7.608	51.14	0.42	6.550	4.180	104.56		-0.74	0.000
93.75	19.245	6.779	51.10	0.42	6.619	4.243	52.58		-0.74	0.000
94.02	19.266	5.925	51.08	0.42	6.693	4.303	12.33		-0.74	0.000
94.29	19.293	5.072	51.06	0.42	6.752	4.356	-88.20		-0.74	0.000
94.56	19.309	4.183	51.04	0.42	6.804	4.404	-146.09		-0.74	0.000
94.83	19.324	3.293	51.03	0.42	6.829	4.443	-249.52		-0.74	0.000
95.10	19.339	2.392	51.01	0.42	6.858	4.471	-267.21		-0.74	0.000
95.37	19.347	1.478	51.00	0.42	6.865	4.492	-267.51		-0.74	0.000
95.63	19.349	0.577	51.00	0.42	6.875	4.501	-269.96		-0.74	0.000
95.90	19.351	-0.313	51.00	0.42	6.882	4.508	-283.73		-0.74	0.000
96.17	19.351	-1.202	51.00	0.42	6.873	4.512	-321.95		-0.74	0.000
96.44	19.351	-2.091	51.00	0.42	6.867	4.505	-325.05		-0.74	0.000
96.71	19.349	-2.993	51.00	0.42	6.857	4.497	-291.40		-0.74	0.000
96.98	19.327	-3.882	51.02	0.42	6.855	4.488	-255.65		-0.74	0.000
97.25	19.316	-4.772	51.03	0.42	6.844	4.479	-161.53		-0.74	0.000
97.52	19.288	-5.625	51.06	0.42	6.839	4.471	-110.00		-0.74	0.000
97.79	19.256	-6.502	51.09	0.42	6.827	4.464	-38.02		-0.74	0.000
98.06	19.220	-7.344	51.13	0.42	6.785	4.449	-32.03		-0.74	0.000
98.34	19.195	-8.161	51.15	0.42	6.754	4.418	-60.03		-0.74	0.000
98.61	19.152	-8.966	51.20	0.42	6.751	4.381	-65.08		-0.74	0.000
98.89	19.104	-9.760	51.25	0.42	6.747	4.352	-51.37		-0.74	0.000
99.16	19.070	-10.505	51.28	0.42	6.732	4.331	-40.10		-0.74	0.000
99.43	19.016	-11.238	51.33	0.42	6.679	4.316	-30.83		-0.74	0.000
99.70	18.957	-11.935	51.39	0.42	6.614	4.296	-42.76		-0.74	0.000
99.98	18.897	-12.608	51.45	0.42	6.581	4.246	-78.01		-0.74	0.000
100.26	18.854	-13.233	51.50	0.42	6.489	4.180	-128.57		-0.74	0.000
100.53	18.785	-13.834	51.56	0.42	6.401	4.138	-151.10		-0.74	0.000
100.81	18.715	-14.411	51.64	0.42	6.307	4.055	-159.25		-0.74	0.000
101.08	18.642	-14.940	51.71	0.42	6.223	3.969	-147.05		-0.74	0.000
101.36	18.593	-15.421	51.76	0.42	6.140	3.883	-111.69		-0.74	0.000
101.63	18.512	-15.865	51.84	0.42	6.047	3.798	-96.41		-0.74	0.000
101.91	18.433	-16.274	51.92	0.42	5.933	3.714	-68.67		-0.74	0.000
102.18	18.351	-16.635	52.00	0.43	5.867	3.631	-76.25		-0.74	0.000
102.46	18.293	-16.947	52.06	0.43	5.788	3.544	-117.36		-0.74	0.000
102.73	18.208	-17.212	52.14	0.43	5.713	3.466	-140.15		-0.74	0.000
103.00	18.121	-17.440	52.23	0.43	5.674	3.394	-188.75		-0.74	0.000
103.28	18.065	-17.608	52.29	0.43	5.502	3.314	-210.69		-0.74	0.000
103.55	17.975	-17.740	52.38	0.43	5.364	3.269	-265.33		-0.74	0.000
103.82	17.886	-17.825	52.46	0.43	5.246	3.172	-284.97		-0.74	0.000
104.10	17.795	-17.849	52.55	0.43	5.147	3.080	-340.95		-0.74	0.000
104.37	17.738	-17.837	52.61	0.43	4.995	2.998	-376.30		-0.74	0.000
104.65	17.647	-17.776	52.70	0.43	4.897	2.927	-470.17		-0.74	0.000
104.92	17.561	-17.668	52.79	0.43	4.816	2.858	-523.62		-0.74	0.000
105.20	17.472	-17.512	52.88	0.43	4.722	2.794	-587.99		-0.74	0.000
105.47	17.413	-17.308	52.94	0.43	4.693	2.745	-599.28		-0.74	0.000
105.75	17.329	-17.055	53.02	0.43	4.607	2.696	-578.43		-0.74	0.000
106.02	17.244	-16.767	53.11	0.43	4.534	2.656	-559.06		-0.74	0.000
106.31	17.162	-16.418	53.19	0.43	4.485	2.624	-522.83		-0.74	0.000
106.58	17.106	-16.034	53.24	0.44	4.445	2.597	-504.00		-0.74	0.000
106.85	17.029	-15.589	53.32	0.44	4.397	2.585	-489.94		-0.74	0.000
107.12	16.951	-15.132	53.40	0.44	4.356	2.559	-446.23		-0.74	0.000
107.40	16.902	-14.615	53.45	0.44	4.334	2.542	-407.69		-0.74	0.000
107.67	16.829	-14.075	53.52	0.44	4.299	2.520	-298.26		-0.74	0.000
107.94	16.762	-13.486	53.59	0.44	4.283	2.509	-235.32		-0.74	0.000
108.21	16.695	-12.861	53.65	0.44	4.264	2.498	-122.42		-0.74	0.000
108.49	16.653	-12.212	53.70	0.44	4.240	2.482	-90.42		-0.74	0.000
108.77	16.594	-11.538	53.76	0.44	4.221	2.470	-51.80		-0.74	0.000
109.04	16.538	-10.793	53.81	0.44	4.200	2.458	-38.14		-0.74	0.000
109.31	16.503	-10.048	53.85	0.44	4.186	2.454	4.13		-0.74	0.000
109.58	16.456	-9.279	53.89	0.44	4.166	2.450	33.39		-0.74	0.000
109.85	16.412	-8.486	53.94	0.44	4.162	2.442	86.33		-0.74	0.000
110.12	16.371	-7.680	53.98	0.44	4.144	2.439	89.35		-0.74	0.000
110.39	16.348	-6.851	54.00	0.44	4.140	2.430	56.45		-0.74	0.000
110.67	16.315	-5.998	54.04	0.44	4.141	2.427	31.73		-0.74	0.000
110.94	16.289	-5.120	54.06	0.44	4.124	2.423	-0.08		-0.74	0.000
111.21	16.274	-4.231	54.08	0.44	4.126	2.419	2.31		-0.74	0.000
111.48	16.257	-3.353	54.09	0.44	4.117	2.418	35.08		-0.74	0.000
111.75	16.246	-2.452	54.10	0.44	4.119	2.412	55.05		-0.74	0.000
112.02	16.237	-1.550	54.11	0.44	4.112	2.411	84.37		-0.74	0.000
112.29	16.231	-0.649	54.12	0.44	4.112	2.410	78.75		-0.74	0.000
112.56	16.231	0.252	54.12	0.44	4.108	2.412	72.08		-0.74	0.000
112.82	16.231	1.154	54.12	0.44	4.116	2.415	76.17		-0.74	0.000
113.08	16.231	2.055	54.12	0.44	4.125	2.416	93.28		-0.74	0.000
113.35	16.233	2.933	54.12	0.44	4.116	2.418	137.82		-0.74	0.000
113.62	16.249	3.798	54.10	0.44	4.115	2.419	142.61		-0.74	0.000
113.89	16.271	4.675	54.08	0.44	4.113	2.419	117.06		-0.74	0.000
114.15	16.296	5.541	54.05	0.44	4.118	2.419	86.23		-0.74	0.000
114.42	16.316	6.406	54.03	0.44	4.118	2.421	-1.55		-0.74	0.000
114.69	16.352	7.236	54.00	0.44	4.118	2.423	-51.11		-0.74	0.000
114.97	16.389	8.041	53.96	0.44	4.128	2.426	-139.34		-0.74	0.000
115.24	16.417	8.858	53.93	0.44	4.126	2.428	-174.57		-0.74	0.000
115.51	16.465	9.639	53.89	0.44	4.124	2.427	-251.62		-0.74	0.000
115.78	16.513	10.385	53.84	0.44	4.126	2.428	-297.52		-0.74	0.000
116.06	16.569	11.130	53.78	0.44	4.137	2.431	-363.98		-0.74	0.000
116.33	16.606	11.827	53.74	0.44	4.144	2.433	-380.75		-0.74	0.000
116.60	16.667	12.512	53.68	0.44	4.149	2.436	-372.17		-0.74	0.000
116.87	16.731	13.137	53.62	0.44	4.159	2.444	-358.44		-0.74	0.000
117.15	16.778	13.750	53.57	0.44	4.166	2.447	-311.23		-0.74	0.000
117.42	16.847	14.315	53.50	0.44	4.174	2.456	-281.91		-0.74	0.000
117.70	16.921	14.844	53.43	0.44	4.195	2.466	-216.49		-0.74	0.000
117.97	16.994	15.337	53.36	0.44	4.199	2.474	-176.66		-0.74	0.000
118.24	17.048	15.793	53.30	0.44	4.216	2.485	-93.78		-0.74	0.000
118.51	17.128	16.190	53.22	0.44	4.234	2.496	-45.71		-0.74	0.000
118.78	17.210	16.563	53.14	0.43	4.251	2.505	45.26		-0.74	0.000
119.05	17.265	16.875	53.09	0.43	4.261	2.511	82.06		-0.74	0.000
119.32	17.351	17.151	53.00	0.43	4.271	2.521	135.46		-0.74	0.000
119.60	17.436	17.380	52.91	0.43	4.294	2.530	158.82		-0.74	0.000
119.87	17.495	17.572	52.85	0.43	4.326	2.540	183.95		-0.74	0.000
120.14	17.581	17.704	52.77	0.43	4.359	2.559	161.12		-0.74	0.000
120.41	17.672	17.800	52.68	0.43	4.406	2.582	99.77		-0.74	0.000
120.68	17.761	17.849	52.59	0.43	4.441	2.606	65.08		-0.74	0.000
120.94	17.821	17.849	52.53	0.43	4.486	2.633	-2.46		-0.74	0.000
121.21	17.908	17.800	52.44	0.43	4.511	2.647	-31.47		-0.74	0.000
121.49	17.997	17.716	52.35	0.43	4.563	2.680	-112.85		-0.74	0.000
121.76	18.057	17.572	52.29	0.43	4.618	2.716	-157.68		-0.74	0.000
122.03	18.143	17.392	52.21	0.43	4.686	2.754	-256.24		-0.74	0.000
122.30	18.230	17.163	52.12	0.43	4.758	2.802	-309.17		-0.74	0.000
122.58	18.288	16.887	52.06	0.43	4.839	2.855	-392.05		-0.74	0.000
122.85	18.370	16.563	51.98	0.42	4.932	2.921	-399.68		-0.74	0.000
123.13	18.452	16.190	51.90	0.42	5.031	2.989	-340.52		-0.74	0.000
123.41	18.533	15.781	51.82	0.42	5.130	3.062	-249.23		-0.74	0.000
123.69	18.584	15.325	51.77	0.42	5.234	3.141	-212.81		-0.74	0.000
123.97	18.660	14.820	51.69	0.42	5.308	3.224	-156.98		-0.74	0.000
124.24	18.733	14.279	51.62	0.42	5.427	3.263	-128.52		-0.74	0.000
124.51	18.802	13.702	51.55	0.42	5.544	3.356	-63.61		-0.74	0.000
124.78	18.847	13.101	51.50	0.42	5.668	3.452	-31.44		-0.74	0.000
125.05	18.911	12.464	51.44	0.42	5.783	3.544	33.15		-0.74	0.000
125.32	18.972	11.791	51.38	0.42	5.907	3.638	55.19		-0.74	0.000
125.59	19.011	11.106	51.34	0.42	6.015	3.732	56.61		-0.74	0.000
125.85	19.063	10.373	51.29	0.42	6.126	3.824	43.17		-0.74	0.000
126.12	19.113	9.627	51.24	0.42	6.181	3.912	6.05		-0.74	0.000
126.39	19.145	8.858	51.20	0.42	6.278	3.951	-4.34		-0.74	0.000
126.66	19.188	8.077	51.16	0.42	6.361	4.029	6.80		-0.74	0.000
126.93	19.225	7.236	51.13	0.42	6.440	4.095	8.88		-0.74	0.000
127.20	19.248	6.394	51.10	0.42	6.521	4.157	-9.06		-0.74	0.000
127.47	19.275	5.541	51.08	0.42	6.577	4.221	-29.16		-0.74	0.000
127.74	19.299	4.675	51.05	0.42	6.625	4.272	-42.82		-0.74	0.000
128.01	19.312	3.798	51.04	0.42	6.659	4.316	-58.45		-0.74	0.000
128.27	19.330	2.909	51.02	0.42	6.687	4.352	-57.03		-0.74	0.000
128.54	19.339	2.007	51.01	0.42	6.712	4.368	-22.93		-0.74	0.000
128.81	19.347	1.118	51.00	0.42	6.726	4.391	-13.87		-0.74	0.000
129.07	19.349	0.216	51.00	0.42	6.723	4.404	-27.23		-0.74	0.000
129.34	19.349	-0.661	51.00	0.42	6.731	4.410	-45.07		-0.74	0.000
129.61	19.349	-1.550	51.00	0.42	6.724	4.412	-85.92		-0.74	0.000
129.87	19.349	-2.440	51.00	0.42	6.721	4.405	-92.54		-0.74	0.000
130.15	19.338	-3.341	51.01	0.42	6.717	4.395	-62.70		-0.74	0.000
130.42	19.318	-4.219	51.03	0.42	6.714	4.389	-32.48		-0.74	0.000
130.70	19.303	-5.108	51.05	0.42	6.702	4.379	2.93		-0.74	0.000
130.96	19.275	-5.986	51.08	0.42	6.695	4.375	1.18		-0.74	0.000
131.24	19.240	-6.851	51.11	0.42	6.669	4.365	-52.76		-0.74	0.000
131.51	19.217	-7.668	51.13	0.42	6.632	4.344	-94.64		-0.74	0.000
131.79	19.176	-8.498	51.17	0.42	6.614	4.312	-162.25		-0.74	0.000
132.06	19.130	-9.291	51.22	0.42	6.598	4.277	-185.08		-0.74	0.000
132.33	19.083	-10.072	51.27	0.42	6.597	4.251	-212.17		-0.74	0.000
132.61	19.048	-10.817	51.30	0.42	6.583	4.234	-219.06		-0.74	0.000
132.88	18.993	-11.538	51.36	0.42	6.548	4.218	-229.52		-0.74	0.000
133.16	18.934	-12.236	51.42	0.42	6.481	4.189	-249.83		-0.74	0.000
133.44	18.892	-12.885	51.46	0.42	6.404	4.133	-314.71		-0.74	0.000
133.72	18.826	-13.510	51.52	0.42	6.316	4.098	-385.45		-0.74	0.000
133.99	18.757	-14.111	51.59	0.42	6.228	4.020	-411.51		-0.74	0.000
134.26	18.683	-14.651	51.67	0.42	6.135	3.937	-447.09		-0.74	0.000
134.54	18.635	-15.156	51.71	0.42	6.044	3.851	-459.61		-0.74	0.000
134.81	18.558	-15.625	51.79	0.42	5.949	3.766	-485.06		-0.74	0.000
135.08	18.480	-16.058	51.87	0.42	5.913	3.683	-493.23		-0.74	0.000
135.36	18.398	-16.442	51.95	0.42	5.815	3.597	-482.18		-0.74	0.000
135.63	18.343	-16.767	52.01	0.43	5.736	3.511	-476.86		-0.74	0.000
135.91	18.258	-17.067	52.09	0.43	5.647	3.428	-470.62		-0.74	0.000
136.18	18.171	-17.320	52.18	0.43	5.570	3.349	-459.90		-0.74	0.000
136.46	18.085	-17.512	52.26	0.43	5.435	3.274	-406.86		-0.74	0.000
136.73	18.026	-17.668	52.32	0.43	5.309	3.233	-366.06		-0.74	0.000
137.01	17.938	-17.776	52.41	0.43	5.175	3.144	-298.64		-0.74	0.000
137.28	17.847	-17.837	52.50	0.43	5.051	3.057	-261.86		-0.74	0.000
137.55	17.789	-17.849	52.56	0.43	4.966	2.971	-193.61		-0.74	0.000
137.83	17.699	-17.813	52.65	0.43	4.900	2.893	-150.60		-0.74	0.000
138.10	17.612	-17.740	52.74	0.43	4.792	2.827	-95.44		-0.74	0.000
138.37	17.522	-17.608	52.83	0.43	4.701	2.766	-80.33		-0.74	0.000
138.65	17.465	-17.428	52.89	0.43	4.611	2.712	-57.85		-0.74	0.000
138.92	17.376	-17.212	52.97	0.43	4.531	2.661	-57.95		-0.74	0.000
139.20	17.293	-16.935	53.06	0.43	4.461	2.617	-66.83		-0.74	0.000
139.47	17.208	-16.623	53.14	0.43	4.404	2.586	-81.17		-0.74	0.000
139.75	17.154	-16.262	53.20	0.43	4.367	2.571	-90.30		-0.74	0.000
140.02	17.074	-15.853	53.28	0.44	4.326	2.543	-79.16		-0.74	0.000
140.30	16.997	-15.409	53.35	0.44	4.290	2.525	-79.34		-0.74	0.000
140.57	16.944	-14.928	53.41	0.44	4.277	2.501	-85.20		-0.74	0.000
140.84	16.870	-14.399	53.48	0.44	4.248	2.487	-120.69		-0.74	0.000
141.12	16.801	-13.834	53.55	0.44	4.217	2.471	-149.67		-0.74	0.000
141.39	16.733	-13.245	53.62	0.44	4.204	2.456	-199.51		-0.74	0.000
141.66	16.688	-12.608	53.66	0.44	4.173	2.444	-216.88		-0.74	0.000
141.94	16.629	-11.935	53.72	0.44	4.155	2.434	-198.61		-0.74	0.000
142.21	16.570	-11.238	53.78	0.44	4.139	2.421	-183.20		-0.74	0.000
142.49	16.516	-10.505	53.83	0.44	4.122	2.412	-132.72		-0.74	0.000
142.76	16.483	-9.748	53.87	0.44	4.112	2.409	-110.57		-0.74	0.000
143.03	16.437	-8.942	53.91	0.44	4.093	2.402	-99.05		-0.74	0.000
143.31	16.394	-8.149	53.96	0.44	4.094	2.392	-78.12		-0.74	0.000
143.58	16.367	-7.308	53.98	0.44	4.074	2.387	-74.97		-0.74	0.000
143.86	16.331	-6.454	54.02	0.44	4.069	2.381	-52.87		-0.74	0.000
144.13	16.303	-5.589	54.05	0.44	4.070	2.376	-52.08		-0.74	0.000
144.40	16.278	-4.712	54.07	0.44	4.052	2.374	-62.40		-0.74	0.000
144.67	16.263	-3.834	54.09	0.44	4.061	2.371	-71.86		-0.74	0.000
144.95	16.247	-2.921	54.10	0.44	4.052	2.369	-90.89		-0.75	0.000
145.22	16.237	-2.019	54.11	0.44	4.055	2.369	-92.90		-0.75	0.000
145.49	16.234	-1.094	54.12	0.44	4.052	2.369	-80.20		-0.75	0.000
145.76	16.229	-0.180	54.12	0.44	4.053	2.369	-66.06		-0.75	0.000
146.02	16.229	0.721	54.12	0.44	4.056	2.371	-29.21		-0.75	0.000
146.28	16.229	1.623	54.12	0.44	4.057	2.371	-8.73		-0.75	0.000
146.55	16.229	2.500	54.12	0.44	4.064	2.373	37.19		-0.75	0.000
146.82	16.242	3.377	54.11	0.44	4.058	2.375	53.69		-0.75	0.000
147.09	16.251	4.243	54.10	0.44	4.061	2.376	73.90		-0.75	0.000
147.36	16.280	5.120	54.07	0.44	4.065	2.377	118.69		-0.75	0.000
147.63	16.308	5.986	54.04	0.44	4.059	2.378	140.11		-0.75	0.000
147.90	16.342	6.851	54.01	0.44	4.070	2.382	183.63		-0.75	0.000
148.18	16.363	7.668	53.99	0.44	4.071	2.387	196.31		-0.75	0.000
148.45	16.406	8.486	53.94	0.44	4.072	2.389	193.02		-0.75	0.000
148.72	16.451	9.279	53.90	0.44	4.075	2.389	174.20		-0.75	0.000
148.99	16.483	10.048	53.87	0.44	4.073	2.390	142.13		-0.75	0.000
149.26	16.535	10.793	53.81	0.44	4.085	2.393	142.55		-0.75	0.000
149.53	16.589	11.502	53.76	0.44	4.088	2.395	159.66		-0.75	0.000
149.80	16.630	12.175	53.72	0.44	4.093	2.401	173.07		-0.75	0.000
150.08	16.693	12.849	53.66	0.44	4.100	2.404	174.99		-0.75	0.000
150.34	16.758	13.450	53.59	0.44	4.104	2.409	157.55		-0.75	0.000
150.62	16.826	14.038	53.52	0.44	4.132	2.414	114.70		-0.75	0.000
150.89	16.874	14.579	53.48	0.44	4.137	2.420	95.62		-0.75	0.000
151.16	16.949	15.096	53.40	0.44	4.142	2.430	63.19		-0.75	0.000
151.43	17.026	15.553	53.32	0.44	4.166	2.439	60.33		-0.75	0.000
151.70	17.079	15.986	53.27	0.44	4.189	2.451	56.03		-0.75	0.000
151.96	17.158	16.370	53.19	0.43	4.182	2.462	47.72		-0.75	0.000
152.23	17.243	16.719	53.11	0.43	4.203	2.467	15.33		-0.75	0.000
152.50	17.298	17.007	53.05	0.43	4.217	2.478	-15.53		-0.75	0.000
152.78	17.384	17.260	52.97	0.43	4.233	2.486	-65.79		-0.75	0.000
153.05	17.471	17.464	52.88	0.43	4.260	2.498	-71.37		-0.75	0.000
153.32	17.529	17.632	52.82	0.43	4.296	2.509	-45.12		-0.75	0.000
153.59	17.619	17.752	52.73	0.43	4.333	2.529	-24.11		-0.75	0.000
153.86	17.706	17.825	52.64	0.43	4.352	2.551	-14.12		-0.75	0.000
154.13	17.767	17.849	52.58	0.43	4.394	2.574	-38.05		-0.75	0.000
154.41	17.854	17.837	52.50	0.43	4.426	2.601	-110.67		-0.75	0.000
154.68	17.944	17.764	52.41	0.43	4.485	2.611	-141.76		-0.75	0.000
154.95	18.034	17.656	52.32	0.43	4.536	2.646	-194.22		-0.75	0.000
155.22	18.090	17.488	52.26	0.43	4.592	2.681	-206.91		-0.75	0.000
155.50	18.177	17.284	52.17	0.43	4.661	2.724	-181.44		-0.75	0.000
155.77	18.265	17.031	52.09	0.43	4.745	2.769	-160.83		-0.75	0.000
156.04	18.321	16.731	52.03	0.43	4.828	2.823	-129.11		-0.75	0.000
156.31	18.403	16.394	51.95	0.42	4.869	2.890	-141.30		-0.75	0.000
156.59	18.484	16.010	51.87	0.42	4.968	2.957	-202.67		-0.75	0.000
156.86	18.563	15.577	51.79	0.42	5.061	3.031	-227.04		-0.75	0.000
157.13	18.615	15.108	51.74	0.42	5.173	3.105	-227.77		-0.75	0.000
157.41	18.688	14.603	51.66	0.42	5.289	3.147	-174.17		-0.75	0.000
157.68	18.761	14.050	51.59	0.42	5.411	3.230	-145.16		-0.75	0.000
157.95	18.806	13.462	51.54	0.42	5.534	3.322	-141.19		-0.75	0.000
158.22	18.872	12.849	51.48	0.42	5.645	3.416	-167.26		-0.75	0.000
158.50	18.935	12.188	51.41	0.42	5.764	3.509	-240.98		-0.75	0.000
158.77	18.993	11.502	51.36	0.42	5.823	3.602	-273.72		-0.75	0.000
159.04	19.033	10.793	51.32	0.42	5.927	3.693	-288.94		-0.75	0.000
159.32	19.083	10.048	51.27	0.42	6.038	3.780	-268.70		-0.75	0.000
159.59	19.133	9.267	51.22	0.42	6.136	3.866	-199.48		-0.75	0.000
159.86	19.162	8.462	51.19	0.42	6.230	3.946	-152.40		-0.75	0.000
160.13	19.202	7.656	51.15	0.42	6.314	3.981	-77.32		-0.75	0.000
160.41	19.238	6.803	51.11	0.42	6.392	4.049	-66.36		-0.75	0.000
160.68	19.270	5.962	51.08	0.42	6.452	4.113	-87.96		-0.75	0.000
160.96	19.288	5.084	51.06	0.42	6.513	4.168	-93.12		-0.75	0.000
161.23	19.309	4.195	51.04	0.42	6.537	4.219	-100.48		-0.75	0.000
161.50	19.325	3.293	51.03	0.42	6.573	4.260	-101.20		-0.75	0.000
161.77	19.336	2.392	51.01	0.42	6.607	4.295	-121.50		-0.75	0.000
162.04	19.347	1.478	51.00	0.42	6.624	4.318	-136.78		-0.75	0.000
162.31	19.349	0.565	51.00	0.42	6.637	4.332	-174.62		-0.75	0.000
162.58	19.352	-0.349	51.00	0.42	6.638	4.336	-190.20		-0.75	0.000
162.85	19.352	-1.250	51.00	0.42	6.631	4.339	-209.38		-0.75	0.000
163.12	19.352	-2.151	51.00	0.42	6.633	4.338	-216.46		-0.75	0.000
163.39	19.344	-3.041	51.01	0.42	6.628	4.334	-173.50		-0.75	0.000
163.67	19.333	-3.942	51.02	0.42	6.630	4.330	-134.14		-0.75	0.000
163.94	19.311	-4.820	51.04	0.42	6.627	4.323	-40.93		-0.75	0.000
164.21	19.281	-5.697	51.07	0.42	6.613	4.318	7.10		-0.75	0.000
164.49	19.251	-6.575	51.10	0.42	6.596	4.308	68.09		-0.75	0.000
164.76	19.227	-7.416	51.12	0.42	6.561	4.289	94.77		-0.75	0.000
165.04	19.188	-8.245	51.16	0.42	6.537	4.255	124.72		-0.75	0.000
165.31	19.145	-9.050	51.20	0.42	6.528	4.236	133.98		-0.75	0.000
165.58	19.112	-9.832	51.24	0.42	6.517	4.208	106.99		-0.75	0.000
165.85	19.061	-10.589	51.29	0.42	6.504	4.189	86.56		-0.75	0.000
166.12	19.007	-11.310	51.34	0.42	6.490	4.174	31.80		-0.75	0.000
166.39	18.948	-12.007	51.40	0.42	6.426	4.155	11.89		-0.75	0.000
166.66	18.908	-12.656	51.44	0.42	6.360	4.111	-31.46		-0.75	0.000
166.94	18.842	-13.281	51.51	0.42	6.278	4.049	-55.41		-0.75	0.000
167.21	18.775	-13.870	51.58	0.42	6.181	3.974	-111.89		-0.75	0.000
167.48	18.726	-14.435	51.62	0.42	6.096	3.889	-140.11		-0.75	0.000
167.75	18.653	-14.964	51.70	0.42	6.005	3.845	-196.59		-0.75	0.000
168.02	18.579	-15.445	51.77	0.42	5.907	3.760	-214.38		-0.75	0.000
168.30	18.525	-15.877	51.83	0.42	5.876	3.673	-237.66		-0.75	0.000
168.58	18.447	-16.274	51.90	0.42	5.778	3.587	-240.39		-0.75	0.000
168.85	18.363	-16.635	51.99	0.43	5.696	3.502	-255.07		-0.75	0.000
169.12	18.279	-16.947	52.07	0.43	5.613	3.419	-258.51		-0.75	0.000
169.40	18.222	-17.212	52.13	0.43	5.531	3.337	-264.09		-0.75	0.000
169.67	18.136	-17.440	52.21	0.43	5.422	3.260	-249.42		-0.75	0.000
169.95	18.048	-17.608	52.30	0.43	5.277	3.185	-209.72		-0.75	0.000
170.22	17.961	-17.740	52.39	0.43	5.153	3.093	-185.33		-0.75	0.000
170.49	17.901	-17.825	52.45	0.43	5.027	3.005	-130.18		-0.75	0.000
170.77	17.810	-17.849	52.54	0.43	4.922	2.963	-102.88		-0.75	0.000
171.04	17.722	-17.837	52.63	0.43	4.871	2.885	-65.70		-0.75	0.000
171.32	17.663	-17.776	52.69	0.43	4.761	2.817	-52.04		-0.75	0.000
171.59	17.574	-17.668	52.78	0.43	4.661	2.751	-22.21		-0.75	0.000
171.86	17.485	-17.512	52.86	0.43	4.575	2.693	-12.31		-0.75	0.000
172.13	17.398	-17.308	52.95	0.43	4.487	2.645	-27.51		-0.75	0.000
172.41	17.340	-17.067	53.01	0.43	4.420	2.600	-56.17		-0.75	0.000
172.68	17.257	-16.767	53.09	0.43	4.366	2.562	-120.92		-0.75	0.000
172.96	17.175	-16.430	53.18	0.43	4.328	2.533	-140.10		-0.75	0.000
173.23	17.094	-16.046	53.26	0.44	4.289	2.509	-151.19		-0.75	0.000
173.50	17.039	-15.625	53.31	0.44	4.251	2.492	-151.69		-0.75	0.000
173.78	16.963	-15.156	53.39	0.44	4.241	2.482	-151.60		-0.75	0.000
174.05	16.888	-14.639	53.46	0.44	4.208	2.467	-151.04		-0.75	0.000
174.33	16.842	-14.099	53.51	0.44	4.187	2.452	-151.93		-0.75	0.000
174.60	16.772	-13.510	53.58	0.44	4.162	2.436	-154.73		-0.75	0.000
174.88	16.706	-12.885	53.64	0.44	4.133	2.424	-157.92		-0.75	0.000
175.15	16.644	-12.236	53.71	0.44	4.124	2.406	-139.28		-0.75	0.000
175.42	16.603	-11.538	53.75	0.44	4.100	2.396	-118.32		-0.75	0.000
175.70	16.548	-10.829	53.80	0.44	4.092	2.385	-105.60		-0.75	0.000
175.98	16.497	-10.096	53.85	0.44	4.077	2.378	-111.59		-0.75	0.000
176.25	16.447	-9.291	53.90	0.44	4.062	2.368	-129.94		-0.75	0.000
176.52	16.419	-8.498	53.93	0.44	4.060	2.363	-129.80		-0.75	0.000
176.80	16.378	-7.668	53.97	0.44	4.048	2.359	-107.23		-0.75	0.000
177.07	16.342	-6.839	54.01	0.44	4.043	2.353	-91.36		-0.75	0.000
177.35	16.311	-5.974	54.04	0.44	4.036	2.350	-59.81		-0.75	0.000
177.62	16.292	-5.084	54.06	0.44	4.029	2.346	-39.35		-0.75	0.000
177.89	16.270	-4.195	54.08	0.44	4.031	2.342	2.06		-0.75	0.000
178.16	16.253	-3.305	54.10	0.44	4.025	2.341	5.86		-0.75	0.000
178.42	16.244	-2.404	54.11	0.44	4.019	2.340	1.13		-0.75	0.000
178.69	16.234	-1.502	54.12	0.44	4.021	2.339	-0.99		-0.75	0.000
178.95	16.233	-0.613	54.12	0.44	4.019	2.340	10.40		-0.75	0.000
179.22	16.231	0.264	54.12	0.44	4.027	2.340	24.52		-0.75	0.000
179.48	16.231	1.154	54.12	0.44	4.023	2.341	37.14		-0.75	0.000
179.74	16.231	2.043	54.12	0.44	4.026	2.342	36.94		-0.75	0.000
180.00	16.231	2.909	54.12	0.44	4.033	2.345	25.06		-0.75	0.000
180.27	16.252	3.786	54.10	0.44	4.024	2.347	-9.54		-0.75	0.000
180.54	16.267	4.639	54.08	0.44	4.032	2.349	-23.55		-0.75	0.000
180.81	16.292	5.517	54.06	0.44	4.034	2.349	-21.48		-0.75	0.000
181.08	16.324	6.358	54.03	0.44	4.037	2.351	-0.92		-0.75	0.000
181.35	16.344	7.212	54.01	0.44	4.042	2.353	36.26		-0.75	0.000
181.62	16.384	8.029	53.97	0.44	4.041	2.355	51.58		-0.75	0.000
181.89	16.426	8.834	53.92	0.44	4.046	2.358	32.13		-0.75	0.000
182.15	16.457	9.591	53.89	0.44	4.048	2.361	-2.16		-0.75	0.000
182.42	16.507	10.337	53.84	0.44	4.043	2.363	-91.97		-0.75	0.000
182.70	16.562	11.046	53.79	0.44	4.060	2.365	-129.24		-0.75	0.000
182.97	16.598	11.755	53.75	0.44	4.056	2.366	-166.27		-0.75	0.000
183.24	16.660	12.440	53.69	0.44	4.071	2.369	-174.12		-0.75	0.000
183.51	16.724	13.077	53.63	0.44	4.075	2.374	-185.21		-0.75	0.000
183.79	16.789	13.678	53.56	0.44	4.093	2.382	-196.55		-0.75	0.000
184.06	16.837	14.255	53.51	0.44	4.102	2.389	-213.63		-0.75	0.000
184.33	16.908	14.796	53.44	0.44	4.106	2.396	-218.54		-0.75	0.000
184.61	16.985	15.276	53.36	0.44	4.126	2.406	-215.06		-0.75	0.000
184.88	17.035	15.733	53.31	0.44	4.139	2.415	-199.04		-0.75	0.000
185.16	17.116	16.154	53.23	0.44	4.154	2.425	-131.69		-0.75	0.000
185.43	17.198	16.526	53.15	0.43	4.164	2.435	-86.47		-0.75	0.000
185.70	17.281	16.851	53.07	0.43	4.183	2.439	-32.00		-0.75	0.000
185.97	17.336	17.127	53.01	0.43	4.191	2.448	-16.70		-0.75	0.000
186.24	17.422	17.368	52.93	0.43	4.215	2.460	-10.31		-0.75	0.000
186.51	17.511	17.560	52.84	0.43	4.248	2.470	-18.86		-0.75	0.000
186.78	17.570	17.704	52.78	0.43	4.270	2.483	-56.28		-0.75	0.000
187.05	17.657	17.800	52.69	0.43	4.310	2.505	-88.37		-0.75	0.000
187.33	17.747	17.849	52.60	0.43	4.339	2.525	-145.08		-0.75	0.000
187.60	17.836	17.849	52.51	0.43	4.383	2.551	-164.47		-0.75	0.000
187.87	17.895	17.813	52.45	0.43	4.427	2.574	-175.83		-0.75	0.000
188.15	17.985	17.716	52.36	0.43	4.479	2.590	-176.56		-0.75	0.000
188.42	18.072	17.584	52.28	0.43	4.526	2.623	-169.03		-0.75	0.000
188.69	18.131	17.392	52.22	0.43	4.590	2.658	-156.56		-0.75	0.000
188.96	18.217	17.163	52.13	0.43	4.658	2.699	-117.28		-0.75	0.000
189.24	18.302	16.887	52.05	0.43	4.698	2.746	-96.43		-0.75	0.000
189.51	18.385	16.575	51.96	0.42	4.783	2.803	-49.72		-0.75	0.000
189.78	18.440	16.214	51.91	0.42	4.875	2.867	-18.38		-0.75	0.000
190.05	18.521	15.805	51.83	0.42	4.971	2.935	52.60		-0.75	0.000
190.32	18.599	15.361	51.75	0.42	5.072	3.009	84.20		-0.75	0.000
190.59	18.648	14.880	51.70	0.42	5.180	3.045	136.81		-0.75	0.000
190.86	18.721	14.351	51.63	0.42	5.301	3.123	157.26		-0.75	0.000
191.13	18.793	13.786	51.56	0.42	5.417	3.211	184.20		-0.75	0.000
191.40	18.838	13.197	51.51	0.42	5.477	3.302	171.94		-0.75	0.000
191.67	18.902	12.560	51.45	0.42	5.593	3.394	118.66		-0.75	0.000
191.94	18.963	11.899	51.39	0.42	5.698	3.486	84.99		-0.75	0.000
192.21	19.001	11.202	51.35	0.42	5.817	3.575	27.09		-0.75	0.000
192.48	19.054	10.481	51.30	0.42	5.926	3.665	-7.21		-0.75	0.000
192.75	19.104	9.748	51.25	0.42	6.026	3.752	-81.04		-0.75	0.000
193.03	19.153	8.966	51.20	0.42	6.121	3.795	-116.72		-0.75	0.000
193.30	19.183	8.161	51.17	0.42	6.213	3.874	-188.14		-0.75	0.000
193.57	19.220	7.332	51.13	0.42	6.248	3.947	-227.99		-0.75	0.000
193.85	19.253	6.478	51.10	0.42	6.325	4.010	-303.98		-0.75	0.000
194.12	19.272	5.625	51.08	0.42	6.390	4.071	-338.00		-0.75	0.000
194.39	19.298	4.736	51.05	0.42	6.455	4.126	-346.04		-0.75	0.000
194.66	19.318	3.858	51.03	0.42	6.490	4.174	-348.17		-0.75	0.000
194.93	19.334	2.957	51.02	0.42	6.526	4.210	-354.84		-0.75	0.000
195.20	19.342	2.043	51.01	0.42	6.553	4.241	-364.56		-0.75	0.000
195.47	19.351	1.142	51.00	0.42	6.570	4.252	-373.17		-0.75	0.000
195.74	19.351	0.240	51.00	0.42	6.575	4.272	-373.00		-0.75	0.000
196.01	19.352	-0.661	51.00	0.42	6.567	4.278	-372.93		-0.75	0.000
196.28	19.352	-1.550	51.00	0.42	6.568	4.282	-380.54		-0.75	0.000
196.55	19.352	-2.464	51.00	0.42	6.563	4.280	-384.49		-0.75	0.000
196.82	19.344	-3.353	51.01	0.42	6.566	4.277	-388.80		-0.75	0.000
197.09	19.325	-4.255	51.03	0.42	6.556	4.266	-413.36		-0.75	0.000
197.37	19.299	-5.132	51.05	0.42	6.550	4.261	-428.68		-0.75	0.000
197.64	19.281	-5.998	51.07	0.42	6.539	4.254	-434.95		-0.75	0.000
197.92	19.249	-6.863	51.10	0.42	6.506	4.247	-419.66		-0.75	0.000
198.20	19.213	-7.716	51.14	0.42	6.502	4.229	-372.78		-0.75	0.000
198.47	19.170	-8.534	51.18	0.42	6.467	4.197	-316.05		-0.75	0.000
198.75	19.142	-9.339	51.21	0.42	6.466	4.160	-290.23		-0.75	0.000
199.02	19.093	-10.108	51.26	0.42	6.448	4.134	-234.32		-0.75	0.000
199.30	19.040	-10.865	51.31	0.42	6.434	4.116	-205.12		-0.75	0.000
199.57	18.983	-11.587	51.37	0.42	6.386	4.098	-121.14		-0.75	0.000
199.85	18.944	-12.284	51.41	0.42	6.326	4.072	-73.11		-0.75	0.000
200.12	18.880	-12.933	51.47	0.42	6.237	4.019	-4.36		-0.75	0.000
200.40	18.813	-13.558	51.54	0.42	6.154	3.949	18.23		-0.75	0.000
200.67	18.744	-14.135	51.61	0.42	6.071	3.869	31.25		-0.75	0.000
200.94	18.698	-14.687	51.65	0.42	6.016	3.825	34.74		-0.75	0.000
201.21	18.624	-15.180	51.73	0.42	5.929	3.744	34.48		-0.75	0.000
201.48	18.547	-15.637	51.80	0.42	5.834	3.659	22.21		-0.75	0.000
201.75	18.493	-16.058	51.86	0.42	5.750	3.573	-2.72		-0.75	0.000
202.02	18.412	-16.442	51.94	0.42	5.660	3.489	-16.01		-0.75	0.000
202.30	18.327	-16.767	52.02	0.43	5.584	3.402	-35.70		-0.75	0.000
202.57	18.272	-17.055	52.08	0.43	5.517	3.319	-41.15		-0.75	0.000
202.84	18.185	-17.308	52.16	0.43	5.410	3.240	-48.37		-0.75	0.000
203.12	18.099	-17.512	52.25	0.43	5.267	3.170	-55.20		-0.75	0.000
203.40	18.011	-17.668	52.34	0.43	5.203	3.088	-67.86		-0.75	0.000
203.67	17.952	-17.776	52.40	0.43	5.075	3.046	-72.38		-0.75	0.000
203.94	17.863	-17.837	52.49	0.43	4.979	2.953	-62.43		-0.75	0.000
204.21	17.775	-17.849	52.58	0.43	4.856	2.872	-44.76		-0.75	0.000
204.49	17.686	-17.825	52.66	0.43	4.726	2.802	18.73		-0.75	0.000
204.76	17.625	-17.740	52.73	0.43	4.641	2.741	42.05		-0.75	0.000
205.03	17.538	-17.608	52.81	0.43	4.559	2.678	71.86		-0.75	0.000
205.30	17.449	-17.440	52.90	0.43	4.461	2.627	76.89		-0.75	0.000
205.57	17.390	-17.212	52.96	0.43	4.382	2.586	72.03		-0.75	0.000
205.84	17.306	-16.947	53.04	0.43	4.383	2.547	66.52		-0.75	0.000
206.12	17.221	-16.647	53.13	0.43	4.314	2.515	85.32		-0.75	0.000
206.39	17.140	-16.298	53.21	0.44	4.279	2.500	90.37		-0.75	0.000
206.66	17.086	-15.889	53.26	0.44	4.249	2.476	67.77		-0.75	0.000
206.94	17.010	-15.457	53.34	0.44	4.204	2.456	51.03		-0.75	0.000
207.21	16.933	-14.976	53.42	0.44	4.187	2.441	4.82		-0.75	0.000
207.48	16.883	-14.447	53.47	0.44	4.151	2.426	-13.80		-0.75	0.000
207.76	16.813	-13.894	53.54	0.44	4.132	2.410	-25.95		-0.75	0.000
208.03	16.744	-13.305	53.61	0.44	4.099	2.391	-35.39		-0.75	0.000
208.30	16.680	-12.668	53.67	0.44	4.096	2.379	-73.94		-0.75	0.000
208.58	16.638	-12.007	53.71	0.44	4.080	2.369	-107.48		-0.75	0.000
208.86	16.581	-11.310	53.77	0.44	4.062	2.358	-181.32		-0.75	0.000
209.13	16.526	-10.553	53.82	0.44	4.059	2.352	-213.76		-0.75	0.000
209.41	16.474	-9.796	53.88	0.44	4.036	2.347	-240.86		-0.75	0.000
209.68	16.444	-9.014	53.91	0.44	4.025	2.338	-225.03		-0.75	0.000
209.96	16.401	-8.209	53.95	0.44	4.016	2.330	-200.49		-0.75	0.000
210.23	16.362	-7.368	53.99	0.44	4.006	2.323	-149.46		-0.75	0.000
210.51	16.328	-6.526	54.02	0.44	4.000	2.318	-130.74		-0.75	0.000
210.78	16.307	-5.637	54.04	0.44	3.992	2.314	-104.01		-0.75	0.000
211.06	16.284	-4.760	54.07	0.44	3.999	2.313	-94.90		-0.75	0.000
211.34	16.262	-3.870	54.09	0.44	3.994	2.311	-59.11		-0.75	0.000
211.60	16.253	-2.933	54.10	0.44	3.989	2.310	-34.58		-0.75	0.000
211.87	16.244	-2.031	54.11	0.44	3.986	2.311	9.06		-0.75	0.000
212.14	16.235	-1.130	54.11	0.44	3.987	2.312	29.41		-0.75	0.000
212.40	16.231	-0.228	54.12	0.44	3.999	2.313	41.19		-0.75	0.000
212.67	16.231	0.649	54.12	0.44	3.986	2.313	26.66		-0.75	0.000
212.94	16.231	1.550	54.12	0.44	4.001	2.315	-16.00		-0.75	0.000
213.20	16.231	2.440	54.12	0.44	3.998	2.318	-49.57		-0.75	0.000
213.47	16.242	3.329	54.11	0.44	3.999	2.320	-80.66		-0.75	0.000
213.74	16.261	4.183	54.09	0.44	4.006	2.323	-123.42		-0.75	0.000
214.01	16.279	5.060	54.07	0.44	4.000	2.324	-143.71		-0.75	0.000
214.29	16.306	5.938	54.04	0.44	4.009	2.326	-192.69		-0.75	0.000
214.56	16.339	6.791	54.01	0.44	4.010	2.328	-217.93		-0.75	0.000
214.83	16.375	7.632	53.98	0.44	4.019	2.330	-264.64		-0.75	0.000
215.11	16.402	8.450	53.95	0.44	4.013	2.333	-284.69		-0.75	0.000
215.38	16.447	9.255	53.90	0.44	4.016	2.335	-320.78		-0.75	0.000
215.65	16.495	10.024	53.85	0.44	4.020	2.337	-347.16		-0.75	0.000
215.92	16.529	10.781	53.82	0.44	4.018	2.337	-363.00		-0.75	0.000
216.20	16.585	11.490	53.76	0.44	4.037	2.339	-369.56		-0.75	0.000
216.47	16.644	12.175	53.71	0.44	4.039	2.342	-368.67		-0.75	0.000
216.74	16.707	12.837	53.64	0.44	4.052	2.348	-374.36		-0.75	0.000
217.02	16.751	13.450	53.60	0.44	4.059	2.351	-372.14		-0.75	0.000
217.29	16.821	14.038	53.53	0.44	4.069	2.359	-370.67		-0.75	0.000
217.56	16.890	14.591	53.46	0.44	4.083	2.368	-368.24		-0.75	0.000
217.83	16.940	15.096	53.41	0.44	4.089	2.375	-368.09		-0.75	0.000
218.11	17.019	15.577	53.33	0.44	4.108	2.383	-368.62		-0.75	0.000
218.38	17.095	15.998	53.25	0.44	4.121	2.392	-368.20		-0.75	0.000
218.66	17.178	16.382	53.17	0.43	4.136	2.402	-368.68		-0.75	0.000
218.93	17.233	16.731	53.12	0.43	4.152	2.413	-384.78		-0.75	0.000
219.20	17.317	17.031	53.03	0.43	4.163	2.419	-398.75		-0.75	0.000
219.47	17.403	17.284	52.95	0.43	4.181	2.430	-407.73		-0.75	0.000
219.75	17.460	17.488	52.89	0.43	4.208	2.435	-406.44		-0.75	0.000
220.02	17.549	17.656	52.80	0.43	4.241	2.444	-372.95		-0.75	0.000
220.29	17.638	17.764	52.71	0.43	4.258	2.463	-343.48		-0.75	0.000
220.57	17.726	17.837	52.62	0.43	4.295	2.483	-267.92		-0.75	0.000
220.84	17.786	17.849	52.56	0.43	4.341	2.505	-225.01		-0.75	0.000
221.11	17.875	17.825	52.48	0.43	4.371	2.531	-150.20		-0.75	0.000
221.38	17.965	17.752	52.39	0.43	4.429	2.555	-121.29		-0.75	0.000
221.65	18.024	17.632	52.33	0.43	4.480	2.587	-77.98		-0.75	0.000
221.93	18.110	17.464	52.24	0.43	4.541	2.622	-50.42		-0.75	0.000
222.20	18.197	17.248	52.15	0.43	4.595	2.660	-1.62		-0.75	0.000
222.47	18.283	16.995	52.07	0.43	4.666	2.683	11.90		-0.75	0.000
222.74	18.339	16.695	52.01	0.43	4.718	2.732	41.87		-0.75	0.000
223.00	18.421	16.346	51.93	0.42	4.793	2.790	57.94		-0.75	0.000
223.27	18.502	15.962	51.85	0.42	4.900	2.855	84.03		-0.75	0.000
223.54	18.554	15.553	51.80	0.42	4.985	2.925	95.68		-0.75	0.000
223.81	18.630	15.072	51.72	0.42	5.092	2.999	118.86		-0.75	0.000
224.08	18.706	14.567	51.64	0.42	5.222	3.078	140.55		-0.75	0.000
224.35	18.752	14.026	51.60	0.42	5.314	3.119	139.53		-0.75	0.000
224.62	18.821	13.450	51.53	0.42	5.386	3.207	118.22		-0.75	0.000
224.89	18.888	12.837	51.46	0.42	5.499	3.296	49.58		-0.75	0.000
225.16	18.929	12.188	51.42	0.42	5.613	3.389	14.61		-0.75	0.000
225.43	18.988	11.514	51.36	0.42	5.728	3.482	-32.61		-0.75	0.000
225.70	19.044	10.805	51.31	0.42	5.829	3.569	-45.64		-0.75	0.000
225.97	19.079	10.060	51.27	0.42	5.953	3.661	-69.24		-0.75	0.000
226.24	19.127	9.303	51.22	0.42	6.031	3.744	-96.14		-0.75	0.000
226.52	19.172	8.510	51.18	0.42	6.123	3.829	-168.96		-0.75	0.000
226.79	19.211	7.692	51.14	0.42	6.169	3.865	-206.18		-0.75	0.000
227.06	19.236	6.851	51.11	0.42	6.232	3.932	-251.64		-0.75	0.000
227.34	19.267	5.998	51.08	0.42	6.314	3.997	-235.44		-0.75	0.000
227.61	19.294	5.120	51.06	0.42	6.371	4.056	-159.64		-0.75	0.000
227.88	19.308	4.231	51.04	0.42	6.432	4.111	-117.45		-0.75	0.000
228.15	19.325	3.341	51.03	0.42	6.458	4.153	-37.05		-0.75	0.000
228.42	19.340	2.428	51.01	0.42	6.499	4.189	-9.02		-0.75	0.000
228.69	19.348	1.514	51.00	0.42	6.515	4.215	26.78		-0.75	0.000
228.95	19.349	0.613	51.00	0.42	6.512	4.233	42.31		-0.75	0.000
229.22	19.351	-0.264	51.00	0.42	6.528	4.238	107.06		-0.75	0.000
229.49	19.351	-1.154	51.00	0.42	6.511	4.243	146.19		-0.75	0.000
229.76	19.351	-2.067	51.00	0.42	6.515	4.242	220.90		-0.75	0.000
230.03	19.349	-2.957	51.00	0.42	6.510	4.238	240.33		-0.75	0.000
230.30	19.334	-3.846	51.02	0.42	6.511	4.232	234.64		-0.75	0.000
230.57	19.312	-4.736	51.04	0.42	6.508	4.229	226.83		-0.75	0.000
230.84	19.286	-5.589	51.06	0.42	6.494	4.220	192.26		-0.75	0.000
231.12	19.254	-6.454	51.10	0.42	6.492	4.215	175.70		-0.75	0.000
231.39	19.234	-7.296	51.12	0.42	6.450	4.192	146.92		-0.75	0.000
231.66	19.193	-8.125	51.16	0.42	6.426	4.180	138.37		-0.75	0.000
231.95	19.149	-8.930	51.20	0.42	6.412	4.144	128.68		-0.75	0.000
232.22	19.102	-9.724	51.25	0.42	6.393	4.110	124.89		-0.75	0.000
232.49	19.070	-10.505	51.28	0.42	6.393	4.092	102.91		-0.75	0.000
232.76	19.016	-11.226	51.33	0.42	6.363	4.075	74.65		-0.75	0.000
233.04	18.958	-11.935	51.39	0.42	6.300	4.059	42.56		-0.75	0.000
233.31	18.916	-12.596	51.43	0.42	6.217	4.019	40.67		-0.75	0.000
233.57	18.852	-13.233	51.50	0.42	6.181	3.958	49.09		-0.75	0.000
233.85	18.785	-13.822	51.56	0.42	6.096	3.881	60.54		-0.75	0.000
234.12	18.736	-14.375	51.61	0.42	6.004	3.798	88.88		-0.75	0.000
234.39	18.666	-14.904	51.68	0.42	5.920	3.757	100.50		-0.75	0.000
234.67	18.589	-15.397	51.76	0.42	5.815	3.672	113.74		-0.75	0.000
234.94	18.512	-15.829	51.84	0.42	5.737	3.586	117.83		-0.75	0.000
235.21	18.458	-16.238	51.89	0.42	5.646	3.501	128.32		-0.75	0.000
235.49	18.376	-16.599	51.97	0.42	5.566	3.412	137.18		-0.75	0.000
235.76	18.290	-16.911	52.06	0.43	5.480	3.326	172.59		-0.75	0.000
236.04	18.206	-17.188	52.14	0.43	5.402	3.243	185.85		-0.75	0.000
236.31	18.148	-17.416	52.20	0.43	5.358	3.173	221.95		-0.75	0.000
236.58	18.062	-17.596	52.29	0.43	5.210	3.102	237.39		-0.75	0.000
236.85	17.972	-17.728	52.38	0.43	5.089	3.014	260.44		-0.75	0.000
237.13	17.913	-17.813	52.44	0.43	4.964	2.975	268.42		-0.75	0.000
237.40	17.826	-17.849	52.52	0.43	4.836	2.888	266.61		-0.75	0.000
237.67	17.735	-17.849	52.61	0.43	4.744	2.813	254.76		-0.75	0.000
237.94	17.647	-17.788	52.70	0.43	4.637	2.748	219.06		-0.75	0.000
238.22	17.586	-17.680	52.76	0.43	4.549	2.686	196.38		-0.75	0.000
238.49	17.501	-17.536	52.85	0.43	4.509	2.632	161.78		-0.75	0.000
238.76	17.411	-17.344	52.94	0.43	4.416	2.590	157.94		-0.75	0.000
239.03	17.353	-17.091	53.00	0.43	4.365	2.553	169.85		-0.75	0.000
239.30	17.269	-16.815	53.08	0.43	4.301	2.517	178.13		-0.75	0.000
239.58	17.188	-16.478	53.16	0.43	4.269	2.492	195.20		-0.75	0.000
239.85	17.104	-16.118	53.25	0.44	4.230	2.477	201.83		-0.75	0.000
240.12	17.052	-15.697	53.30	0.44	4.207	2.458	216.75		-0.75	0.000
240.39	16.975	-15.240	53.38	0.44	4.172	2.442	226.64		-0.75	0.000
240.67	16.901	-14.736	53.45	0.44	4.149	2.421	221.16		-0.75	0.000
240.94	16.851	-14.207	53.50	0.44	4.129	2.409	209.35		-0.75	0.000
241.22	16.781	-13.618	53.57	0.44	4.099	2.392	181.36		-0.75	0.000
241.49	16.717	-13.017	53.63	0.44	4.089	2.379	170.38		-0.75	0.000
241.76	16.654	-12.368	53.70	0.44	4.061	2.366	123.58		-0.75	0.000
242.03	16.612	-11.695	53.74	0.44	4.054	2.356	100.43		-0.75	0.000
242.31	16.557	-10.974	53.79	0.44	4.032	2.345	65.09		-0.75	0.000
242.57	16.503	-10.252	53.85	0.44	4.016	2.341	53.92		-0.75	0.000
242.84	16.471	-9.471	53.88	0.44	4.015	2.336	37.36		-0.75	0.000
243.11	16.424	-8.702	53.93	0.44	3.999	2.329	22.51		-0.75	0.000
243.39	16.383	-7.897	53.97	0.44	3.994	2.323	-13.38		-0.75	0.000
243.66	16.360	-7.067	53.99	0.44	3.986	2.318	-30.41		-0.75	0.000
243.93	16.325	-6.214	54.03	0.44	3.986	2.315	-53.72		-0.75	0.000
244.21	16.297	-5.349	54.05	0.44	3.979	2.310	-67.85		-0.75	0.000
244.48	16.275	-4.459	54.08	0.44	3.973	2.308	-91.14		-0.75	0.000
244.76	16.260	-3.570	54.09	0.44	3.977	2.308	-103.23		-0.75	0.000
245.03	16.248	-2.644	54.10	0.44	3.972	2.307	-162.91		-0.75	0.000
245.30	16.239	-1.731	54.11	0.44	3.980	2.307	-205.15		-0.75	0.000
245.57	16.237	-0.805	54.11	0.44	3.978	2.307	-291.63		-0.75	0.000
245.84	16.234	0.072	54.12	0.44	3.975	2.309	-327.80		-0.75	0.000
246.11	16.234	0.998	54.12	0.44	3.983	2.311	-377.48		-0.75	0.000
246.37	16.234	1.875	54.12	0.44	3.985	2.313	-389.69		-0.75	0.000
246.64	16.234	2.788	54.12	0.44	3.992	2.317	-407.33		-0.75	0.000
246.91	16.252	3.666	54.10	0.44	3.985	2.318	-413.36		-0.75	0.000
247.19	16.274	4.543	54.08	0.44	3.993	2.318	-420.17		-0.75	0.000
247.47	16.290	5.421	54.06	0.44	3.993	2.319	-415.85		-0.75	0.000
247.74	16.319	6.286	54.03	0.44	3.997	2.323	-374.18		-0.75	0.000
248.02	16.354	7.163	54.00	0.44	4.006	2.326	-341.77		-0.75	0.000
248.29	16.379	8.005	53.97	0.44	4.003	2.329	-283.02		-0.75	0.000
248.56	16.419	8.822	53.93	0.44	4.008	2.333	-281.54		-0.75	0.000
248.84	16.466	9.603	53.88	0.44	4.008	2.335	-302.49		-0.75	0.000
249.10	16.516	10.361	53.83	0.44	4.013	2.337	-320.30		-0.75	0.000
249.38	16.552	11.106	53.80	0.44	4.022	2.339	-318.90		-0.75	0.000
249.65	16.608	11.803	53.74	0.44	4.027	2.342	-276.07		-0.75	0.000
249.93	16.670	12.476	53.68	0.44	4.038	2.346	-244.43		-0.75	0.000
250.20	16.713	13.125	53.64	0.44	4.046	2.349	-194.84		-0.75	0.000
250.47	16.780	13.738	53.57	0.44	4.053	2.357	-177.30		-0.75	0.000
250.74	16.849	14.291	53.50	0.44	4.066	2.363	-150.71		-0.75	0.000
251.01	16.921	14.820	53.43	0.44	4.075	2.368	-133.86		-0.75	0.000
251.29	16.971	15.312	53.38	0.44	4.092	2.377	-65.21		-0.75	0.000
251.55	17.049	15.769	53.30	0.44	4.100	2.385	-25.50		-0.75	0.000
251.82	17.131	16.166	53.22	0.44	4.124	2.395	11.08		-0.75	0.000
252.09	17.184	16.538	53.17	0.43	4.130	2.404	68.21		-0.75	0.000
252.36	17.267	16.851	53.08	0.43	4.147	2.412	85.97		-0.75	0.000
252.63	17.353	17.127	53.00	0.43	4.154	2.415	91.72		-0.75	0.000
252.90	17.411	17.368	52.94	0.43	4.171	2.422	73.78		-0.75	0.000
253.17	17.498	17.548	52.85	0.43	4.206	2.435	26.28		-0.75	0.000
253.43	17.586	17.692	52.76	0.43	4.227	2.444	2.94		-0.75	0.000
253.70	17.645	17.788	52.70	0.43	4.272	2.463	-40.34		-0.75	0.000
253.98	17.733	17.849	52.62	0.43	4.303	2.484	-62.37		-0.75	0.000
254.25	17.822	17.849	52.53	0.43	4.342	2.503	-130.90		-0.75	0.000
254.52	17.881	17.813	52.47	0.43	4.367	2.528	-155.37		-0.75	0.000
254.80	17.971	17.728	52.38	0.43	4.407	2.538	-201.02		-0.75	0.000
255.07	18.058	17.584	52.29	0.43	4.463	2.569	-223.22		-0.75	0.000
255.34	18.147	17.404	52.20	0.43	4.516	2.603	-271.61		-0.75	0.000
255.62	18.203	17.188	52.15	0.43	4.580	2.641	-289.77		-0.75	0.000
255.89	18.290	16.911	52.06	0.43	4.656	2.685	-301.82		-0.75	0.000
256.17	18.374	16.587	51.98	0.42	4.733	2.736	-302.41		-0.75	0.000
256.44	18.456	16.226	51.89	0.42	4.825	2.798	-309.66		-0.75	0.000
256.71	18.508	15.817	51.84	0.42	4.912	2.862	-345.55		-0.75	0.000
256.98	18.588	15.361	51.76	0.42	5.016	2.936	-358.17		-0.75	0.000
257.26	18.661	14.880	51.69	0.42	5.069	3.006	-373.70		-0.75	0.000
257.53	18.711	14.363	51.64	0.42	5.177	3.086	-362.88		-0.75	0.000
257.80	18.781	13.786	51.57	0.42	5.295	3.129	-307.35		-0.75	0.000
258.08	18.849	13.197	51.50	0.42	5.404	3.217	-272.57		-0.75	0.000
258.35	18.912	12.560	51.44	0.42	5.525	3.306	-212.94		-0.75	0.000
258.63	18.953	11.875	51.40	0.42	5.631	3.395	-194.64		-0.75	0.000
258.90	19.011	11.178	51.34	0.42	5.743	3.484	-175.83		-0.75	0.000
259.17	19.065	10.445	51.29	0.42	5.852	3.574	-173.45		-0.75	0.000
259.44	19.099	9.688	51.25	0.42	5.953	3.661	-133.41		-0.75	0.000
259.71	19.145	8.906	51.20	0.42	5.996	3.745	-107.00		-0.75	0.000
259.99	19.188	8.113	51.16	0.42	6.078	3.820	-49.56		-0.75	0.000
260.26	19.226	7.272	51.12	0.42	6.158	3.855	-29.39		-0.75	0.000
260.53	19.249	6.430	51.10	0.42	6.236	3.922	-25.16		-0.75	0.000
260.80	19.277	5.565	51.07	0.42	6.297	3.984	-34.80		-0.75	0.000
261.07	19.302	4.688	51.05	0.42	6.354	4.041	-47.64		-0.75	0.000
261.34	19.316	3.798	51.03	0.42	6.391	4.087	-38.63		-0.75	0.000
261.61	19.331	2.909	51.02	0.42	6.431	4.129	-13.00		-0.75	0.000
261.87	19.342	2.019	51.01	0.42	6.434	4.160	5.27		-0.75	0.000
262.14	19.349	1.118	51.00	0.42	6.451	4.180	-0.67		-0.75	0.000
262.41	19.349	0.228	51.00	0.42	6.472	4.190	-19.24		-0.75	0.000
262.67	19.349	-0.661	51.00	0.42	6.461	4.201	-44.33		-0.75	0.000
262.94	19.349	-1.563	51.00	0.42	6.462	4.205	-104.19		-0.75	0.000
263.21	19.349	-2.440	51.00	0.42	6.457	4.204	-124.51		-0.75	0.000
263.48	19.339	-3.353	51.01	0.42	6.457	4.200	-174.73		-0.75	0.000
263.76	19.324	-4.231	51.03	0.42	6.459	4.194	-201.73		-0.75	0.000
264.03	19.302	-5.108	51.05	0.42	6.450	4.188	-266.34		-0.75	0.000
264.30	19.270	-5.986	51.08	0.42	6.434	4.182	-301.52		-0.75	0.000
264.58	19.239	-6.839	51.11	0.42	6.408	4.171	-342.32		-0.75	0.000
264.85	19.216	-7.680	51.13	0.42	6.381	4.161	-333.50		-0.75	0.000
265.13	19.175	-8.510	51.18	0.42	6.358	4.130	-311.77		-0.75	0.000
265.40	19.129	-9.315	51.22	0.42	6.351	4.091	-286.08		-0.75	0.000
265.67	19.079	-10.084	51.27	0.42	6.336	4.066	-279.48		-0.75	0.000
265.96	19.045	-10.841	51.30	0.42	6.313	4.048	-276.42		-0.75	0.000
266.23	18.989	-11.550	51.36	0.42	6.257	4.033	-267.41		-0.75	0.000
266.50	18.931	-12.260	51.42	0.42	6.231	4.006	-229.05		-0.75	0.000
266.77	18.888	-12.909	51.46	0.42	6.156	3.956	-199.19		-0.75	0.000
267.05	18.821	-13.522	51.53	0.42	6.070	3.889	-118.15		-0.75	0.000
267.32	18.752	-14.111	51.60	0.42	5.980	3.812	-78.80		-0.75	0.000
267.60	18.681	-14.651	51.67	0.42	5.889	3.728	-19.52		-0.75	0.000
267.87	18.631	-15.168	51.72	0.42	5.795	3.645	0.58		-0.75	0.000
268.13	18.554	-15.625	51.80	0.42	5.707	3.602	43.05		-0.75	0.000
268.41	18.474	-16.046	51.88	0.42	5.620	3.512	71.33		-0.75	0.000
268.68	18.420	-16.418	51.93	0.42	5.534	3.423	150.09		-0.75	0.000
268.95	18.338	-16.755	52.01	0.43	5.507	3.334	183.69		-0.75	0.000
269.22	18.253	-17.055	52.10	0.43	5.419	3.254	231.81		-0.75	0.000
269.50	18.169	-17.308	52.18	0.43	5.347	3.181	241.73		-0.75	0.000
269.77	18.111	-17.512	52.24	0.43	5.218	3.112	244.83		-0.75	0.000
270.05	18.021	-17.668	52.33	0.43	5.095	3.034	236.73		-0.75	0.000
270.32	17.933	-17.776	52.42	0.43	4.961	2.947	210.64		-0.75	0.000
270.59	17.874	-17.837	52.48	0.43	4.837	2.904	199.00		-0.75	0.000
270.86	17.784	-17.849	52.57	0.43	4.740	2.827	162.59		-0.75	0.000
271.14	17.693	-17.825	52.66	0.43	4.627	2.752	142.31		-0.75	0.000
271.41	17.606	-17.740	52.74	0.43	4.583	2.693	80.52		-0.75	0.000
271.68	17.547	-17.620	52.80	0.43	4.497	2.636	38.26		-0.75	0.000
271.96	17.460	-17.440	52.89	0.43	4.415	2.592	-47.97		-0.75	0.000
272.23	17.372	-17.224	52.98	0.43	4.348	2.553	-77.62		-0.75	0.000
272.51	17.315	-16.959	53.04	0.43	4.295	2.519	-96.26		-0.75	0.000
272.78	17.230	-16.647	53.12	0.43	4.248	2.491	-102.76		-0.75	0.000
273.05	17.149	-16.298	53.20	0.43	4.217	2.465	-118.13		-0.75	0.000
273.33	17.069	-15.901	53.28	0.44	4.184	2.446	-131.94		-0.75	0.000
273.60	17.016	-15.457	53.33	0.44	4.158	2.437	-138.98		-0.76	0.000
273.88	16.939	-14.976	53.41	0.44	4.129	2.419	-130.60		-0.76	0.000
274.15	16.867	-14.447	53.48	0.44	4.113	2.407	-100.75		-0.76	0.000
274.42	16.795	-13.894	53.55	0.44	4.089	2.391	-87.39		-0.76	0.000
274.69	16.752	-13.305	53.60	0.44	4.080	2.378	-52.09		-0.76	0.000
274.97	16.685	-12.668	53.66	0.44	4.048	2.367	-30.78		-0.76	0.000
275.25	16.626	-12.007	53.72	0.44	4.038	2.357	-12.02		-0.76	0.000
275.52	16.567	-11.298	53.78	0.44	4.016	2.346	-18.57		-0.76	0.000
275.79	16.529	-10.553	53.82	0.44	4.002	2.339	-18.54		-0.76	0.000
276.07	16.479	-9.808	53.87	0.44	3.996	2.331	-11.42		-0.76	0.000
276.35	16.431	-9.026	53.92	0.44	3.986	2.326	-12.96		-0.76	0.000
276.63	16.390	-8.221	53.96	0.44	3.977	2.323	-54.77		-0.76	0.000
276.90	16.365	-7.368	53.99	0.44	3.976	2.316	-77.96		-0.76	0.000
277.18	16.329	-6.490	54.02	0.44	3.971	2.312	-83.36		-0.76	0.000
277.45	16.301	-5.625	54.05	0.44	3.965	2.310	-63.66		-0.76	0.000
277.73	16.283	-4.736	54.07	0.44	3.971	2.307	-13.90		-0.76	0.000
278.00	16.265	-3.858	54.09	0.44	3.959	2.305	13.25		-0.76	0.000
278.27	16.247	-2.945	54.10	0.44	3.964	2.305	67.70		-0.76	0.000
278.54	16.237	-2.031	54.11	0.44	3.965	2.304	78.57		-0.76	0.000
278.81	16.234	-1.130	54.12	0.44	3.963	2.306	69.03		-0.76	0.000
279.08	16.226	-0.228	54.12	0.44	3.961	2.307	61.77		-0.76	0.000
279.34	16.226	0.673	54.12	0.44	3.970	2.307	68.86		-0.76	0.000
279.60	16.226	1.563	54.12	0.44	3.965	2.310	87.73		-0.76	0.000
279.87	16.226	2.464	54.12	0.44	3.974	2.312	133.31		-0.76	0.000
280.14	16.235	3.329	54.11	0.44	3.974	2.312	137.68		-0.76	0.000
280.41	16.254	4.195	54.10	0.44	3.974	2.315	105.22		-0.76	0.000
280.68	16.279	5.072	54.07	0.44	3.978	2.319	78.91		-0.76	0.000
280.95	16.307	5.950	54.04	0.44	3.984	2.320	23.12		-0.76	0.000
281.21	16.328	6.779	54.02	0.44	3.989	2.321	-3.75		-0.76	0.000
281.48	16.365	7.608	53.99	0.44	3.995	2.323	-13.56		-0.76	0.000
281.75	16.406	8.413	53.94	0.44	3.992	2.327	13.06		-0.76	0.000
282.02	16.435	9.207	53.91	0.44	3.995	2.328	30.63		-0.76	0.000
282.29	16.484	9.976	53.87	0.44	3.997	2.330	43.07		-0.76	0.000
282.55	16.534	10.709	53.82	0.44	4.007	2.333	33.84		-0.76	0.000
282.82	16.571	11.418	53.78	0.44	4.005	2.336	12.86		-0.76	0.000
283.09	16.630	12.079	53.72	0.44	4.019	2.338	20.84		-0.76	0.000
283.36	16.692	12.740	53.66	0.44	4.024	2.343	62.85		-0.76	0.000
283.63	16.737	13.353	53.61	0.44	4.037	2.350	75.37		-0.76	0.000
283.91	16.804	13.930	53.55	0.44	4.049	2.356	62.99		-0.76	0.000
284.19	16.875	14.495	53.48	0.44	4.061	2.362	42.66		-0.76	0.000
284.44	16.924	15.012	53.43	0.44	4.072	2.368	-15.47		-0.76	0.000
284.71	17.001	15.505	53.35	0.44	4.086	2.377	-57.72		-0.76	0.000
284.99	17.080	15.901	53.27	0.44	4.089	2.386	-138.52		-0.76	0.000
285.25	17.134	16.310	53.22	0.44	4.103	2.394	-177.53		-0.76	0.000
285.53	17.216	16.659	53.13	0.43	4.119	2.396	-254.49		-0.76	0.000
285.80	17.299	16.959	53.05	0.43	4.128	2.406	-295.07		-0.76	0.000
286.08	17.385	17.236	52.96	0.43	4.144	2.415	-356.28		-0.76	0.000
286.35	17.443	17.452	52.91	0.43	4.168	2.422	-370.82		-0.76	0.000
286.63	17.530	17.620	52.82	0.43	4.198	2.433	-349.49		-0.76	0.000
286.90	17.619	17.740	52.73	0.43	4.237	2.450	-318.71		-0.76	0.000
287.17	17.679	17.825	52.67	0.43	4.270	2.466	-255.96		-0.76	0.000
287.44	17.767	17.849	52.58	0.43	4.288	2.485	-223.37		-0.76	0.000
287.72	17.857	17.837	52.49	0.43	4.322	2.507	-137.35		-0.76	0.000
287.99	17.947	17.776	52.40	0.43	4.362	2.529	-93.12		-0.76	0.000
288.26	18.006	17.668	52.34	0.43	4.422	2.543	2.58		-0.76	0.000
288.53	18.093	17.500	52.26	0.43	4.467	2.572	33.29		-0.76	0.000
288.80	18.180	17.308	52.17	0.43	4.536	2.605	70.22		-0.76	0.000
289.06	18.238	17.055	52.11	0.43	4.598	2.646	63.43		-0.76	0.000
289.33	18.321	16.767	52.03	0.43	4.632	2.694	11.32		-0.76	0.000
289.60	18.404	16.454	51.95	0.42	4.716	2.747	-22.71		-0.76	0.000
289.87	18.458	16.070	51.89	0.42	4.799	2.808	-102.79		-0.76	0.000
290.14	18.539	15.649	51.81	0.42	4.895	2.879	-139.35		-0.76	0.000
290.42	18.616	15.192	51.73	0.42	4.984	2.913	-190.15		-0.76	0.000
290.69	18.665	14.700	51.69	0.42	5.106	2.982	-214.21		-0.76	0.000
290.96	18.736	14.159	51.61	0.42	5.207	3.057	-259.82		-0.76	0.000
291.23	18.806	13.582	51.54	0.42	5.321	3.140	-275.87		-0.76	0.000
291.51	18.871	12.969	51.48	0.42	5.432	3.228	-284.54		-0.76	0.000
291.78	18.915	12.332	51.44	0.42	5.480	3.313	-283.61		-0.76	0.000
292.06	18.974	11.635	51.38	0.42	5.601	3.401	-282.50		-0.76	0.000
292.32	19.030	10.925	51.32	0.42	5.699	3.490	-275.27		-0.76	0.000
292.60	19.067	10.180	51.28	0.42	5.808	3.578	-239.82		-0.76	0.000
292.87	19.113	9.423	51.24	0.42	5.907	3.661	-205.19		-0.76	0.000
293.15	19.159	8.618	51.19	0.42	5.987	3.703	-147.01		-0.76	0.000
293.42	19.199	7.813	51.15	0.42	6.064	3.784	-140.02		-0.76	0.000
293.69	19.226	6.971	51.12	0.42	6.143	3.850	-161.41		-0.76	0.000
293.97	19.257	6.118	51.09	0.42	6.209	3.917	-180.13		-0.76	0.000
294.24	19.285	5.240	51.06	0.42	6.243	3.977	-213.03		-0.76	0.000
294.51	19.302	4.351	51.05	0.42	6.295	4.030	-222.10		-0.76	0.000
294.78	19.316	3.462	51.03	0.42	6.335	4.075	-222.90		-0.76	0.000
295.05	19.333	2.560	51.02	0.42	6.367	4.110	-220.38		-0.76	0.000
295.32	19.343	1.647	51.01	0.42	6.384	4.138	-210.75		-0.76	0.000
295.59	19.344	0.745	51.01	0.42	6.400	4.149	-212.97		-0.76	0.000
295.86	19.345	-0.144	51.00	0.42	6.402	4.164	-251.29		-0.76	0.000
296.13	19.345	-1.058	51.00	0.42	6.393	4.170	-270.03		-0.76	0.000
296.40	19.345	-1.959	51.00	0.42	6.401	4.170	-283.99		-0.76	0.000
296.66	19.345	-2.861	51.00	0.42	6.398	4.168	-279.89		-0.76	0.000
296.94	19.329	-3.762	51.02	0.42	6.393	4.161	-276.69		-0.76	0.000
297.21	19.312	-4.627	51.04	0.42	6.395	4.158	-284.19		-0.76	0.000
297.49	19.286	-5.505	51.06	0.42	6.382	4.154	-314.01		-0.76	0.000
297.76	19.254	-6.370	51.10	0.42	6.365	4.146	-326.69		-0.76	0.000
298.04	19.221	-7.236	51.13	0.42	6.335	4.128	-328.25		-0.76	0.000
298.32	19.195	-8.053	51.15	0.42	6.299	4.114	-345.00		-0.76	0.000
298.59	19.152	-8.882	51.20	0.42	6.294	4.080	-350.39		-0.76	0.000
298.86	19.106	-9.688	51.24	0.42	6.283	4.043	-330.99		-0.76	0.000
299.14	19.054	-10.457	51.30	0.42	6.274	4.021	-315.12		-0.76	0.000
299.41	19.020	-11.178	51.33	0.42	6.256	4.008	-260.24		-0.76	0.000
299.69	18.961	-11.887	51.39	0.42	6.199	3.989	-228.06		-0.76	0.000
299.96	18.901	-12.548	51.45	0.42	6.134	3.955	-165.40		-0.76	0.000
300.23	18.858	-13.197	51.49	0.42	6.052	3.893	-134.38		-0.76	0.000
300.51	18.789	-13.798	51.56	0.42	5.964	3.821	-93.88		-0.76	0.000
300.78	18.720	-14.363	51.63	0.42	5.878	3.740	-82.44		-0.76	0.000
301.06	18.647	-14.892	51.70	0.42	5.788	3.661	-83.68		-0.76	0.000
301.33	18.595	-15.385	51.75	0.42	5.699	3.619	-85.07		-0.76	0.000
301.61	18.518	-15.841	51.83	0.42	5.616	3.531	-69.12		-0.76	0.000
301.89	18.438	-16.238	51.91	0.42	5.570	3.442	-67.10		-0.76	0.000
302.16	18.356	-16.599	51.99	0.43	5.490	3.354	-92.49		-0.76	0.000
302.43	18.299	-16.923	52.05	0.43	5.405	3.274	-122.89		-0.76	0.000
302.71	18.215	-17.188	52.14	0.43	5.326	3.195	-192.51		-0.76	0.000
302.99	18.129	-17.416	52.22	0.43	5.237	3.124	-210.81		-0.76	0.000
303.27	18.039	-17.596	52.31	0.43	5.091	3.056	-239.29		-0.76	0.000
303.53	17.981	-17.728	52.37	0.43	4.971	2.969	-241.84		-0.76	0.000
303.81	17.892	-17.813	52.46	0.43	4.844	2.888	-218.11		-0.76	0.000
304.08	17.803	-17.849	52.55	0.43	4.736	2.809	-190.21		-0.76	0.000
304.36	17.744	-17.837	52.61	0.43	4.630	2.736	-138.83		-0.76	0.000
304.63	17.654	-17.788	52.70	0.43	4.580	2.708	-133.37		-0.76	0.000
304.91	17.567	-17.680	52.78	0.43	4.488	2.651	-160.22		-0.76	0.000
305.18	17.478	-17.524	52.87	0.43	4.405	2.604	-174.75		-0.76	0.000
305.46	17.420	-17.320	52.93	0.43	4.338	2.563	-152.25		-0.76	0.000
305.73	17.334	-17.079	53.02	0.43	4.284	2.525	-89.13		-0.76	0.000
306.01	17.248	-16.779	53.10	0.43	4.237	2.492	-54.98		-0.76	0.000
306.28	17.167	-16.442	53.18	0.43	4.204	2.466	-51.89		-0.76	0.000
306.55	17.111	-16.058	53.24	0.44	4.168	2.442	-81.72		-0.76	0.000
306.83	17.033	-15.649	53.32	0.44	4.140	2.426	-181.18		-0.76	0.000
307.10	16.956	-15.180	53.39	0.44	4.112	2.409	-242.77		-0.76	0.000
307.38	16.906	-14.663	53.44	0.44	4.099	2.395	-355.63		-0.76	0.000
307.65	16.833	-14.111	53.52	0.44	4.077	2.388	-379.01		-0.76	0.000
307.93	16.765	-13.534	53.59	0.44	4.055	2.372	-390.56		-0.76	0.000
308.20	16.699	-12.909	53.65	0.44	4.036	2.362	-399.48		-0.76	0.000
308.47	16.657	-12.248	53.69	0.44	4.018	2.349	-452.98		-0.76	0.000
308.75	16.598	-11.563	53.75	0.44	4.007	2.339	-481.60		-0.76	0.000
309.04	16.542	-10.853	53.81	0.44	3.992	2.330	-504.42		-0.76	0.000
309.31	16.489	-10.108	53.86	0.44	3.981	2.323	-477.70		-0.76	0.000
309.58	16.457	-9.291	53.89	0.44	3.974	2.314	-375.80		-0.76	0.000
309.85	16.412	-8.510	53.94	0.44	3.964	2.306	-312.68		-0.76	0.000
310.13	16.371	-7.680	53.98	0.44	3.955	2.302	-212.20		-0.76	0.000
310.40	16.338	-6.839	54.01	0.44	3.955	2.298	-171.85		-0.76	0.000
310.68	16.315	-5.974	54.04	0.44	3.947	2.295	-106.31		-0.76	0.000
310.95	16.289	-5.096	54.06	0.44	3.948	2.294	-75.89		-0.76	0.000
311.23	16.267	-4.207	54.08	0.44	3.942	2.293	-16.15		-0.76	0.000
311.49	16.257	-3.305	54.09	0.44	3.946	2.293	19.44		-0.76	0.000
311.76	16.243	-2.392	54.11	0.44	3.949	2.293	57.96		-0.76	0.000
312.03	16.233	-1.502	54.12	0.44	3.945	2.294	67.26		-0.76	0.000
312.30	16.228	-0.589	54.12	0.44	3.954	2.297	62.22		-0.76	0.000
312.56	16.228	0.288	54.12	0.44	3.948	2.297	48.79		-0.76	0.000
312.83	16.228	1.202	54.12	0.44	3.954	2.299	11.85		-0.76	0.000
313.09	16.228	2.079	54.12	0.44	3.956	2.300	-2.10		-0.76	0.000
313.36	16.228	2.957	54.12	0.44	3.954	2.303	-32.59		-0.76	0.000
313.63	16.248	3.834	54.10	0.44	3.959	2.306	-56.09		-0.76	0.000
313.90	16.262	4.712	54.09	0.44	3.961	2.308	-108.95		-0.76	0.000
314.17	16.290	5.577	54.06	0.44	3.962	2.309	-129.28		-0.76	0.000
314.44	16.320	6.430	54.03	0.44	3.966	2.311	-162.90		-0.76	0.000
314.72	16.356	7.284	53.99	0.44	3.969	2.314	-166.99		-0.76	0.000
314.99	16.381	8.113	53.97	0.44	3.975	2.317	-184.59		-0.76	0.000
315.26	16.424	8.918	53.93	0.44	3.976	2.320	-190.00		-0.76	0.000
315.54	16.472	9.700	53.88	0.44	3.984	2.322	-182.40		-0.76	0.000
315.81	16.503	10.457	53.85	0.44	3.988	2.324	-170.10		-0.76	0.000
316.09	16.558	11.202	53.79	0.44	3.997	2.326	-141.64		-0.76	0.000
316.35	16.616	11.887	53.73	0.44	3.998	2.329	-122.60		-0.76	0.000
316.63	16.676	12.572	53.67	0.44	4.012	2.332	-80.61		-0.76	0.000
316.90	16.720	13.197	53.63	0.44	4.016	2.335	-59.49		-0.76	0.000
317.17	16.788	13.810	53.56	0.44	4.024	2.343	-57.19		-0.76	0.000
317.44	16.857	14.351	53.49	0.44	4.039	2.351	-75.10		-0.76	0.000
317.72	16.907	14.880	53.44	0.44	4.049	2.357	-105.81		-0.76	0.000
317.98	16.981	15.373	53.37	0.44	4.061	2.359	-110.10		-0.76	0.000
318.26	17.061	15.817	53.29	0.44	4.076	2.370	-99.01		-0.76	0.000
318.53	17.140	16.214	53.21	0.44	4.089	2.379	-84.96		-0.76	0.000
318.81	17.195	16.587	53.15	0.43	4.103	2.387	-41.31		-0.76	0.000
319.08	17.280	16.899	53.07	0.43	4.110	2.394	-12.85		-0.76	0.000
319.35	17.363	17.175	52.99	0.43	4.125	2.401	48.30		-0.76	0.000
319.62	17.422	17.404	52.93	0.43	4.140	2.407	68.83		-0.76	0.000
319.90	17.508	17.584	52.84	0.43	4.178	2.417	73.98		-0.76	0.000
320.17	17.598	17.716	52.75	0.43	4.206	2.431	76.33		-0.76	0.000
320.44	17.656	17.813	52.69	0.43	4.243	2.436	62.35		-0.76	0.000
320.70	17.747	17.849	52.60	0.43	4.275	2.451	39.66		-0.76	0.000
320.97	17.835	17.849	52.51	0.43	4.302	2.468	-41.53		-0.76	0.000
321.24	17.895	17.800	52.45	0.43	4.329	2.490	-95.30		-0.76	0.000
321.52	17.984	17.704	52.37	0.43	4.371	2.517	-212.61		-0.76	0.000
321.79	18.071	17.560	52.28	0.43	4.455	2.544	-261.48		-0.76	0.000
322.06	18.158	17.368	52.19	0.43	4.494	2.572	-352.60		-0.76	0.000
322.33	18.216	17.127	52.13	0.43	4.534	2.612	-391.71		-0.76	0.000
322.61	18.301	16.851	52.05	0.43	4.615	2.663	-444.72		-0.76	0.000
322.88	18.385	16.526	51.96	0.42	4.705	2.685	-455.39		-0.76	0.000
323.15	18.439	16.154	51.91	0.42	4.788	2.745	-466.86		-0.76	0.000
323.42	18.518	15.745	51.83	0.42	4.864	2.807	-464.78		-0.76	0.000
323.70	18.595	15.288	51.75	0.42	4.926	2.876	-450.34		-0.76	0.000
323.97	18.672	14.808	51.68	0.42	5.029	2.945	-430.93		-0.76	0.000
324.24	18.721	14.255	51.63	0.42	5.141	3.022	-393.90		-0.76	0.000
324.51	18.790	13.690	51.56	0.42	5.256	3.106	-373.36		-0.76	0.000
324.79	18.856	13.089	51.49	0.42	5.353	3.189	-345.29		-0.76	0.000
325.06	18.898	12.452	51.45	0.42	5.463	3.277	-328.81		-0.76	0.000
325.34	18.958	11.767	51.39	0.42	5.571	3.359	-274.19		-0.76	0.000
325.61	19.016	11.070	51.33	0.42	5.682	3.402	-235.52		-0.76	0.000
325.88	19.068	10.325	51.28	0.42	5.772	3.487	-148.51		-0.76	0.000
326.15	19.103	9.567	51.25	0.42	5.826	3.569	-104.22		-0.76	0.000
326.42	19.148	8.774	51.20	0.42	5.924	3.649	-12.17		-0.76	0.000
326.69	19.190	7.969	51.16	0.42	5.997	3.725	36.94		-0.76	0.000
326.96	19.215	7.139	51.14	0.42	6.082	3.794	115.31		-0.76	0.000
327.23	19.248	6.322	51.10	0.42	6.144	3.857	153.42		-0.76	0.000
327.50	19.275	5.445	51.08	0.42	6.207	3.920	198.18		-0.76	0.000
327.77	19.295	4.591	51.05	0.42	6.258	3.970	218.47		-0.76	0.000
328.04	19.313	3.702	51.04	0.42	6.294	3.993	237.06		-0.76	0.000
328.31	19.329	2.800	51.02	0.42	6.323	4.035	239.13		-0.76	0.000
328.58	19.331	1.899	51.02	0.42	6.330	4.068	243.32		-0.76	0.000
328.84	19.343	0.998	51.01	0.42	6.360	4.090	249.73		-0.76	0.000
329.10	19.344	0.096	51.01	0.42	6.356	4.105	268.13		-0.76	0.000
329.37	19.344	-0.781	51.01	0.42	6.359	4.114	275.79		-0.76	0.000
329.64	19.344	-1.671	51.01	0.42	6.355	4.115	272.16		-0.76	0.000
329.91	19.344	-2.548	51.01	0.42	6.350	4.114	256.82		-0.76	0.000
330.18	19.335	-3.450	51.01	0.42	6.356	4.111	232.84		-0.76	0.000
330.45	19.316	-4.327	51.03	0.42	6.344	4.104	236.40		-0.76	0.000
330.72	19.290	-5.216	51.06	0.42	6.339	4.101	248.37		-0.76	0.000
330.99	19.261	-6.082	51.09	0.42	6.331	4.098	255.36		-0.76	0.000
331.27	19.240	-6.923	51.11	0.42	6.300	4.085	247.25		-0.76	0.000
331.54	19.201	-7.764	51.15	0.42	6.272	4.065	231.44		-0.76	0.000
331.81	19.159	-8.582	51.19	0.42	6.258	4.032	188.70		-0.76	0.000
332.09	19.131	-9.375	51.22	0.42	6.248	4.002	163.62		-0.76	0.000
332.36	19.080	-10.144	51.27	0.42	6.243	3.991	119.92		-0.76	0.000
332.63	19.029	-10.889	51.32	0.42	6.226	3.972	122.95		-0.76	0.000
332.91	18.974	-11.599	51.38	0.42	6.191	3.961	161.04		-0.76	0.000
333.18	18.931	-12.284	51.42	0.42	6.112	3.937	180.10		-0.76	0.000
333.45	18.870	-12.933	51.48	0.42	6.045	3.888	202.56		-0.76	0.000
333.72	18.803	-13.546	51.55	0.42	5.951	3.820	209.06		-0.76	0.000
334.00	18.757	-14.123	51.59	0.42	5.869	3.742	222.66		-0.76	0.000
334.27	18.685	-14.663	51.66	0.42	5.776	3.659	237.75		-0.76	0.000
334.55	18.611	-15.180	51.74	0.42	5.685	3.574	273.59		-0.76	0.000
334.81	18.533	-15.637	51.82	0.42	5.644	3.487	289.77		-0.76	0.000
335.10	18.481	-16.070	51.87	0.42	5.550	3.395	307.25		-0.76	0.000
335.37	18.401	-16.442	51.95	0.42	5.472	3.351	295.67		-0.76	0.000
335.65	18.317	-16.791	52.03	0.43	5.385	3.266	233.16		-0.76	0.000
335.92	18.233	-17.079	52.12	0.43	5.315	3.188	184.69		-0.76	0.000
336.19	18.175	-17.332	52.18	0.43	5.237	3.115	70.93		-0.76	0.000
336.46	18.088	-17.524	52.26	0.43	5.095	3.049	14.26		-0.76	0.000
336.73	17.999	-17.680	52.35	0.43	4.978	2.972	-76.40		-0.76	0.000
337.01	17.942	-17.776	52.41	0.43	4.845	2.888	-117.08		-0.76	0.000
337.29	17.851	-17.837	52.50	0.43	4.723	2.808	-188.33		-0.76	0.000
337.56	17.762	-17.849	52.59	0.43	4.680	2.734	-233.42		-0.76	0.000
337.83	17.672	-17.813	52.68	0.43	4.570	2.675	-235.61		-0.76	0.000
338.11	17.615	-17.728	52.74	0.43	4.486	2.616	-204.75		-0.76	0.000
338.38	17.525	-17.608	52.83	0.43	4.403	2.592	-173.49		-0.76	0.000
338.66	17.436	-17.428	52.91	0.43	4.319	2.548	-91.03		-0.76	0.000
338.94	17.349	-17.200	53.00	0.43	4.279	2.510	-41.44		-0.76	0.000
339.21	17.294	-16.923	53.06	0.43	4.224	2.476	52.85		-0.76	0.000
339.49	17.211	-16.611	53.14	0.43	4.174	2.450	89.86		-0.76	0.000
339.76	17.128	-16.250	53.22	0.44	4.142	2.428	136.84		-0.76	0.000
340.04	17.049	-15.829	53.30	0.44	4.119	2.407	152.29		-0.76	0.000
340.31	16.995	-15.385	53.35	0.44	4.093	2.388	174.35		-0.76	0.000
340.59	16.920	-14.892	53.43	0.44	4.079	2.372	175.98		-0.76	0.000
340.86	16.847	-14.363	53.50	0.44	4.058	2.363	170.43		-0.76	0.000
341.13	16.801	-13.798	53.55	0.44	4.035	2.350	167.14		-0.76	0.000
341.41	16.733	-13.185	53.62	0.44	4.026	2.342	165.58		-0.76	0.000
341.68	16.670	-12.560	53.68	0.44	3.998	2.332	166.09		-0.76	0.000
341.95	16.608	-11.887	53.74	0.44	3.976	2.318	151.82		-0.76	0.000
342.22	16.569	-11.202	53.78	0.44	3.989	2.311	140.82		-0.76	0.000
342.50	16.515	-10.469	53.84	0.44	3.967	2.305	108.78		-0.76	0.000
342.77	16.465	-9.724	53.89	0.44	3.962	2.300	97.55		-0.76	0.000
343.05	16.434	-8.918	53.92	0.44	3.956	2.294	83.25		-0.76	0.000
343.31	16.392	-8.125	53.96	0.44	3.938	2.288	85.20		-0.76	0.000
343.59	16.353	-7.272	54.00	0.44	3.940	2.285	101.66		-0.76	0.000
343.86	16.320	-6.454	54.03	0.44	3.929	2.282	107.89		-0.76	0.000
344.13	16.298	-5.577	54.05	0.44	3.935	2.281	82.78		-0.76	0.000
344.40	16.274	-4.712	54.08	0.44	3.925	2.280	54.82		-0.76	0.000
344.67	16.254	-3.810	54.10	0.44	3.931	2.279	10.91		-0.76	0.000
344.94	16.246	-2.921	54.10	0.44	3.923	2.279	4.70		-0.76	0.000
345.21	16.235	-2.007	54.11	0.44	3.926	2.279	20.10		-0.76	0.000
345.48	16.228	-1.118	54.12	0.44	3.934	2.280	44.22		-0.76	0.000
345.74	16.225	-0.204	54.13	0.44	3.931	2.281	59.34		-0.76	0.000
346.01	16.225	0.673	54.13	0.44	3.931	2.284	51.96		-0.76	0.000
346.28	16.225	1.575	54.13	0.44	3.935	2.284	18.83		-0.76	0.000
346.54	16.225	2.452	54.13	0.44	3.944	2.285	-4.32		-0.76	0.000
346.81	16.234	3.341	54.12	0.44	3.945	2.289	-52.96		-0.76	0.000
347.08	16.251	4.219	54.10	0.44	3.939	2.292	-74.15		-0.76	0.000
347.36	16.270	5.084	54.08	0.44	3.949	2.294	-127.21		-0.76	0.000
347.64	16.301	5.974	54.05	0.44	3.945	2.296	-158.94		-0.76	0.000
347.91	16.331	6.851	54.02	0.44	3.956	2.298	-244.14		-0.76	0.000
348.18	16.369	7.692	53.98	0.44	3.960	2.303	-282.17		-0.76	0.000
348.46	16.395	8.510	53.95	0.44	3.956	2.306	-354.01		-0.76	0.000
348.72	16.440	9.303	53.91	0.44	3.966	2.307	-373.59		-0.76	0.000
349.00	16.489	10.084	53.86	0.44	3.957	2.309	-400.94		-0.76	0.000
349.27	16.525	10.805	53.83	0.44	3.974	2.311	-409.75		-0.76	0.000
349.55	16.580	11.538	53.77	0.44	3.978	2.313	-394.34		-0.76	0.000
349.82	16.639	12.212	53.71	0.44	3.982	2.314	-370.53		-0.76	0.000
350.09	16.702	12.873	53.65	0.44	3.995	2.321	-285.76		-0.76	0.000
350.36	16.747	13.486	53.60	0.44	4.002	2.327	-233.62		-0.76	0.000
350.64	16.815	14.075	53.54	0.44	4.021	2.334	-123.96		-0.76	0.000
350.91	16.888	14.615	53.46	0.44	4.023	2.340	-72.82		-0.76	0.000
351.18	16.937	15.132	53.41	0.44	4.044	2.347	-9.78		-0.76	0.000
351.45	17.012	15.589	53.34	0.44	4.055	2.352	15.53		-0.76	0.000
351.72	17.093	16.022	53.26	0.44	4.055	2.359	62.31		-0.76	0.000
351.99	17.147	16.394	53.20	0.43	4.081	2.365	85.95		-0.76	0.000
352.26	17.229	16.731	53.12	0.43	4.086	2.372	124.97		-0.76	0.000
352.53	17.313	17.031	53.04	0.43	4.105	2.381	131.61		-0.76	0.000
352.80	17.399	17.284	52.95	0.43	4.110	2.388	118.03		-0.76	0.000
353.07	17.458	17.488	52.89	0.43	4.144	2.398	94.65		-0.76	0.000
353.34	17.544	17.644	52.81	0.43	4.167	2.410	41.30		-0.76	0.000
353.61	17.634	17.764	52.72	0.43	4.206	2.417	24.19		-0.76	0.000
353.88	17.693	17.837	52.66	0.43	4.230	2.433	7.13		-0.76	0.000
354.15	17.783	17.849	52.57	0.43	4.255	2.450	6.92		-0.76	0.000
354.42	17.872	17.837	52.48	0.43	4.295	2.470	-17.94		-0.76	0.000
354.69	17.931	17.764	52.42	0.43	4.333	2.491	-38.11		-0.76	0.000
354.96	18.019	17.644	52.33	0.43	4.385	2.517	-84.52		-0.76	0.000
355.23	18.108	17.488	52.24	0.43	4.436	2.547	-99.93		-0.76	0.000
355.51	18.166	17.284	52.18	0.43	4.498	2.580	-106.25		-0.76	0.000
355.78	18.251	17.019	52.10	0.43	4.565	2.624	-85.80		-0.76	0.000
356.05	18.334	16.719	52.02	0.43	4.603	2.644	-18.75		-0.76	0.000
356.32	18.417	16.382	51.93	0.42	4.681	2.697	17.26		-0.76	0.000
356.59	18.472	15.998	51.88	0.42	4.767	2.754	46.46		-0.76	0.000
356.85	18.549	15.565	51.80	0.42	4.848	2.818	26.67		-0.76	0.000
357.12	18.627	15.108	51.72	0.42	4.952	2.887	-23.38		-0.76	0.000
357.39	18.676	14.615	51.67	0.42	5.054	2.957	-42.34		-0.76	0.000
357.66	18.748	14.075	51.60	0.42	5.169	3.034	-64.91		-0.76	0.000
357.93	18.817	13.498	51.53	0.42	5.215	3.115	-79.14		-0.76	0.000
358.21	18.862	12.885	51.49	0.42	5.325	3.157	-111.89		-0.76	0.000
358.48	18.924	12.236	51.43	0.42	5.436	3.246	-133.06		-0.76	0.000
358.75	18.984	11.550	51.37	0.42	5.543	3.329	-171.75		-0.76	0.000
359.02	19.021	10.841	51.33	0.42	5.643	3.417	-191.94		-0.76	0.000
359.30	19.072	10.096	51.28	0.42	5.739	3.505	-236.12		-0.76	0.000
359.57	19.121	9.327	51.23	0.42	5.836	3.590	-237.91		-0.76	0.000
359.85	19.166	8.522	51.18	0.42	5.918	3.668	-194.73		-0.76	0.000
360.12	19.193	7.704	51.16	0.42	5.995	3.740	-164.39		-0.76	0.000
360.39	19.229	6.863	51.12	0.42	6.038	3.808	-113.95		-0.76	0.000
360.66	19.261	6.022	51.09	0.42	6.101	3.871	-89.50		-0.76	0.000
360.94	19.288	5.144	51.06	0.42	6.162	3.900	-69.43		-0.76	0.000
361.22	19.303	4.255	51.05	0.42	6.216	3.954	-69.55		-0.76	0.000
361.49	19.318	3.341	51.03	0.42	6.250	3.999	-99.21		-0.76	0.000
361.76	19.334	2.428	51.02	0.42	6.277	4.040	-129.29		-0.76	0.000
362.03	19.342	1.514	51.01	0.42	6.299	4.066	-166.63		-0.76	0.000
362.29	19.343	0.613	51.01	0.42	6.310	4.089	-172.53		-0.76	0.000
362.56	19.344	-0.288	51.01	0.42	6.312	4.100	-156.53		-0.76	0.000
362.83	19.344	-1.178	51.01	0.42	6.308	4.103	-139.78		-0.76	0.000
363.10	19.344	-2.079	51.01	0.42	6.310	4.104	-88.61		-0.76	0.000
363.37	19.343	-2.981	51.01	0.42	6.302	4.100	-61.87		-0.76	0.000
363.64	19.326	-3.870	51.02	0.42	6.306	4.095	-22.47		-0.76	0.000
363.91	19.306	-4.760	51.04	0.42	6.301	4.091	1.10		-0.76	0.000
364.18	19.277	-5.625	51.07	0.42	6.297	4.087	52.46		-0.76	0.000
364.45	19.257	-6.466	51.09	0.42	6.271	4.084	91.58		-0.76	0.000
364.73	19.222	-7.296	51.13	0.42	6.238	4.068	176.26		-0.76	0.000
365.00	19.184	-8.125	51.17	0.42	6.228	4.040	211.88		-0.76	0.000
365.27	19.140	-8.942	51.21	0.42	6.224	4.004	238.39		-0.76	0.000
365.54	19.111	-9.724	51.24	0.42	6.201	3.987	231.25		-0.76	0.000
365.81	19.058	-10.493	51.29	0.42	6.161	3.970	187.84		-0.76	0.000
366.09	19.003	-11.202	51.35	0.42	6.147	3.951	148.73		-0.76	0.000
366.36	18.967	-11.899	51.38	0.42	6.111	3.936	74.64		-0.76	0.000
366.63	18.906	-12.572	51.44	0.42	6.029	3.899	44.83		-0.76	0.000
366.91	18.840	-13.197	51.51	0.42	5.940	3.847	3.43		-0.76	0.000
367.17	18.774	-13.810	51.58	0.42	5.902	3.771	-12.68		-0.76	0.000
367.44	18.726	-14.375	51.62	0.42	5.805	3.686	-70.01		-0.76	0.000
367.72	18.653	-14.892	51.70	0.42	5.718	3.607	-106.29		-0.76	0.000
367.99	18.576	-15.373	51.77	0.42	5.639	3.518	-197.92		-0.76	0.000
368.27	18.526	-15.829	51.82	0.42	5.549	3.474	-238.25		-0.76	0.000
368.55	18.445	-16.226	51.90	0.42	5.454	3.384	-304.47		-0.76	0.000
368.82	18.362	-16.599	51.99	0.43	5.393	3.296	-315.77		-0.76	0.000
369.10	18.277	-16.923	52.07	0.43	5.310	3.214	-293.00		-0.76	0.000
369.37	18.222	-17.188	52.13	0.43	5.234	3.140	-272.51		-0.76	0.000
369.65	18.135	-17.416	52.21	0.43	5.111	3.072	-232.08		-0.76	0.000
369.92	18.049	-17.596	52.30	0.43	5.040	3.006	-233.32		-0.76	0.000
370.19	17.960	-17.728	52.39	0.43	4.929	2.927	-232.24		-0.76	0.000
370.46	17.901	-17.813	52.45	0.43	4.805	2.845	-229.65		-0.76	0.000
370.74	17.811	-17.849	52.54	0.43	4.682	2.772	-186.59		-0.76	0.000
371.01	17.721	-17.849	52.63	0.43	4.587	2.704	-150.75		-0.76	0.000
371.29	17.662	-17.788	52.69	0.43	4.487	2.678	-108.90		-0.76	0.000
371.56	17.574	-17.680	52.78	0.43	4.402	2.623	-103.78		-0.76	0.000
371.83	17.485	-17.536	52.86	0.43	4.329	2.575	-127.59		-0.76	0.000
372.11	17.398	-17.332	52.95	0.43	4.265	2.537	-141.40		-0.76	0.000
372.38	17.342	-17.091	53.01	0.43	4.214	2.499	-157.09		-0.76	0.000
372.65	17.257	-16.803	53.09	0.43	4.201	2.472	-155.74		-0.76	0.000
372.93	17.174	-16.466	53.18	0.43	4.159	2.447	-113.00		-0.76	0.000
373.20	17.093	-16.094	53.26	0.44	4.136	2.425	-66.31		-0.76	0.000
373.47	17.039	-15.661	53.31	0.44	4.100	2.412	-51.87		-0.76	0.000
373.74	16.962	-15.204	53.39	0.44	4.074	2.395	-47.14		-0.76	0.000
374.02	16.888	-14.712	53.46	0.44	4.056	2.383	-31.35		-0.76	0.000
374.29	16.839	-14.183	53.51	0.44	4.035	2.375	12.06		-0.76	0.000
374.56	16.771	-13.594	53.58	0.44	4.019	2.360	41.16		-0.76	0.000
374.84	16.703	-12.969	53.65	0.44	3.993	2.349	78.30		-0.76	0.000
375.11	16.642	-12.332	53.71	0.44	3.993	2.339	84.16		-0.76	0.000
375.38	16.601	-11.635	53.75	0.44	3.972	2.331	82.86		-0.76	0.000
375.66	16.544	-10.925	53.81	0.44	3.966	2.323	60.80		-0.76	0.000
375.93	16.492	-10.192	53.86	0.44	3.951	2.317	-12.59		-0.76	0.000
376.21	16.458	-9.411	53.89	0.44	3.943	2.309	-59.16		-0.76	0.000
376.49	16.412	-8.618	53.94	0.44	3.938	2.304	-140.64		-0.76	0.000
376.76	16.371	-7.788	53.98	0.44	3.929	2.297	-165.69		-0.76	0.000
377.04	16.335	-6.947	54.01	0.44	3.924	2.294	-209.83		-0.76	0.000
377.31	16.315	-6.094	54.04	0.44	3.919	2.291	-229.42		-0.76	0.000
377.58	16.285	-5.192	54.06	0.44	3.918	2.289	-262.73		-0.76	0.000
377.85	16.263	-4.327	54.09	0.44	3.922	2.288	-260.72		-0.76	0.000
378.13	16.247	-3.425	54.10	0.44	3.917	2.289	-257.88		-0.76	0.000
378.40	16.237	-2.524	54.11	0.44	3.922	2.289	-254.31		-0.76	0.000
378.67	16.229	-1.611	54.12	0.44	3.923	2.290	-251.53		-0.76	0.000
378.94	16.224	-0.709	54.13	0.44	3.919	2.290	-252.68		-0.76	0.000
379.21	16.221	0.204	54.13	0.44	3.928	2.292	-255.81		-0.76	0.000
379.48	16.221	1.106	54.13	0.44	3.936	2.294	-270.42		-0.76	0.000
379.75	16.221	2.007	54.13	0.44	3.929	2.295	-296.00		-0.76	0.000
380.02	16.221	2.909	54.13	0.44	3.940	2.297	-308.50		-0.76	0.000
380.29	16.237	3.810	54.11	0.44	3.939	2.300	-322.29		-0.76	0.000
380.56	16.263	4.688	54.09	0.44	3.935	2.301	-333.28		-0.76	0.000
380.83	16.289	5.565	54.06	0.44	3.944	2.303	-360.24		-0.76	0.000
381.11	16.310	6.430	54.04	0.44	3.946	2.306	-364.49		-0.76	0.000
381.38	16.344	7.272	54.01	0.44	3.952	2.308	-352.45		-0.76	0.000
381.65	16.383	8.101	53.97	0.44	3.958	2.311	-342.46		-0.76	0.000
381.93	16.412	8.906	53.94	0.44	3.960	2.314	-330.66		-0.76	0.000
382.20	16.458	9.688	53.89	0.44	3.962	2.315	-326.26		-0.76	0.000
382.47	16.510	10.457	53.84	0.44	3.963	2.317	-283.53		-0.76	0.000
382.75	16.562	11.190	53.79	0.44	3.972	2.319	-255.92		-0.76	0.000
383.02	16.599	11.887	53.75	0.44	3.976	2.323	-179.72		-0.76	0.000
383.30	16.663	12.572	53.69	0.44	3.983	2.326	-135.58		-0.76	0.000
383.56	16.726	13.197	53.62	0.44	4.002	2.333	-43.01		-0.76	0.000
383.84	16.771	13.798	53.58	0.44	4.007	2.339	-11.96		-0.76	0.000
384.11	16.843	14.351	53.51	0.44	4.020	2.345	-20.65		-0.76	0.000
384.38	16.915	14.880	53.44	0.44	4.031	2.350	-42.63		-0.76	0.000
384.66	16.990	15.361	53.36	0.44	4.055	2.358	-52.56		-0.76	0.000
384.92	17.044	15.805	53.31	0.44	4.055	2.364	-30.44		-0.76	0.000
385.18	17.122	16.226	53.23	0.44	4.066	2.371	37.59		-0.76	0.000
385.45	17.206	16.575	53.14	0.43	4.084	2.378	59.28		-0.76	0.000
385.73	17.261	16.887	53.09	0.43	4.091	2.383	24.23		-0.76	0.000
385.99	17.345	17.151	53.00	0.43	4.109	2.392	-23.41		-0.76	0.000
386.26	17.433	17.392	52.92	0.43	4.125	2.401	-142.03		-0.76	0.000
386.54	17.490	17.572	52.86	0.43	4.152	2.410	-201.38		-0.76	0.000
386.81	17.580	17.704	52.77	0.43	4.173	2.425	-254.36		-0.76	0.000
387.09	17.669	17.800	52.68	0.43	4.211	2.430	-251.71		-0.76	0.000
387.36	17.726	17.849	52.62	0.43	4.241	2.447	-232.60		-0.76	0.000
387.63	17.817	17.849	52.53	0.43	4.276	2.464	-231.91		-0.76	0.000
387.90	17.906	17.800	52.44	0.43	4.313	2.485	-282.32		-0.76	0.000
388.18	17.994	17.704	52.36	0.43	4.355	2.507	-311.86		-0.76	0.000
388.45	18.053	17.560	52.30	0.43	4.404	2.532	-336.05		-0.76	0.000
388.72	18.140	17.368	52.21	0.43	4.463	2.561	-309.64		-0.76	0.000
388.99	18.226	17.139	52.12	0.43	4.522	2.598	-210.13		-0.76	0.000
389.27	18.283	16.851	52.07	0.43	4.560	2.643	-151.16		-0.76	0.000
389.54	18.368	16.538	51.98	0.42	4.631	2.691	-62.34		-0.76	0.000
389.81	18.448	16.166	51.90	0.42	4.712	2.721	-49.77		-0.76	0.000
390.09	18.529	15.745	51.82	0.42	4.808	2.780	-42.16		-0.76	0.000
390.36	18.580	15.300	51.77	0.42	4.888	2.846	-35.22		-0.76	0.000
390.62	18.656	14.796	51.69	0.42	4.994	2.915	-8.96		-0.76	0.000
390.89	18.726	14.279	51.62	0.42	5.111	2.984	11.79		-0.76	0.000
391.16	18.774	13.726	51.58	0.42	5.219	3.066	29.90		-0.76	0.000
391.43	18.842	13.125	51.51	0.42	5.265	3.146	32.20		-0.76	0.000
391.70	18.904	12.488	51.45	0.42	5.376	3.228	31.40		-0.76	0.000
391.97	18.945	11.827	51.40	0.42	5.476	3.312	28.28		-0.76	0.000
392.24	19.003	11.130	51.35	0.42	5.591	3.352	20.47		-0.76	0.000
392.51	19.056	10.409	51.29	0.42	5.684	3.439	19.06		-0.76	0.000
392.78	19.092	9.663	51.26	0.42	5.780	3.523	43.56		-0.76	0.000
393.05	19.138	8.894	51.21	0.42	5.866	3.603	61.59		-0.76	0.000
393.32	19.180	8.077	51.17	0.42	5.949	3.680	104.14		-0.76	0.000
393.59	19.204	7.260	51.15	0.42	5.985	3.751	130.49		-0.76	0.000
393.86	19.238	6.430	51.11	0.42	6.053	3.814	186.97		-0.76	0.000
394.14	19.267	5.553	51.08	0.42	6.114	3.876	201.25		-0.76	0.000
394.41	19.293	4.688	51.06	0.42	6.171	3.905	170.24		-0.76	0.000
394.68	19.307	3.798	51.04	0.42	6.211	3.958	132.04		-0.76	0.000
394.95	19.320	2.897	51.03	0.42	6.246	4.000	47.31		-0.76	0.000
395.21	19.329	1.995	51.02	0.42	6.265	4.030	6.92		-0.76	0.000
395.48	19.336	1.094	51.01	0.42	6.278	4.056	-51.91		-0.76	0.000
395.75	19.338	0.192	51.01	0.42	6.281	4.071	-83.22		-0.76	0.000
396.02	19.339	-0.697	51.01	0.42	6.282	4.079	-146.03		-0.76	0.000
396.29	19.339	-1.587	51.01	0.42	6.277	4.079	-174.06		-0.76	0.000
396.55	19.339	-2.488	51.01	0.42	6.279	4.076	-250.63		-0.76	0.000
396.82	19.325	-3.389	51.03	0.42	6.282	4.073	-293.00		-0.76	0.000
397.10	19.313	-4.267	51.04	0.42	6.270	4.068	-350.96		-0.76	0.000
397.38	19.290	-5.132	51.06	0.42	6.271	4.064	-354.25		-0.76	0.000
397.66	19.259	-6.010	51.09	0.42	6.253	4.060	-316.18		-0.76	0.000
397.93	19.227	-6.911	51.12	0.42	6.240	4.050	-284.17		-0.76	0.000
398.21	19.202	-7.740	51.15	0.42	6.215	4.028	-216.07		-0.76	0.000
398.48	19.162	-8.570	51.19	0.42	6.186	3.993	-190.56		-0.76	0.000
398.76	19.117	-9.375	51.23	0.42	6.181	3.959	-139.00		-0.76	0.000
399.03	19.067	-10.156	51.28	0.42	6.169	3.937	-115.23		-0.76	0.000
399.31	19.033	-10.901	51.32	0.42	6.151	3.924	-60.91		-0.76	0.000
399.58	18.975	-11.623	51.38	0.42	6.105	3.908	-22.92		-0.76	0.000
399.86	18.916	-12.296	51.43	0.42	6.042	3.894	68.11		-0.76	0.000
400.13	18.875	-12.957	51.48	0.42	5.957	3.847	121.04		-0.76	0.000
400.40	18.810	-13.582	51.54	0.42	5.868	3.781	203.64		-0.76	0.000
400.68	18.739	-14.147	51.61	0.42	5.832	3.704	214.34		-0.76	0.000
400.95	18.667	-14.687	51.68	0.42	5.737	3.621	202.70		-0.76	0.000
401.22	18.617	-15.192	51.73	0.42	5.652	3.539	195.70		-0.76	0.000
401.50	18.540	-15.661	51.81	0.42	5.560	3.448	208.75		-0.76	0.000
401.77	18.460	-16.082	51.89	0.42	5.478	3.355	220.58		-0.76	0.000
402.04	18.379	-16.454	51.97	0.42	5.395	3.268	182.61		-0.76	0.000
402.31	18.325	-16.791	52.03	0.43	5.316	3.188	141.72		-0.76	0.000
402.59	18.239	-17.079	52.11	0.43	5.243	3.150	45.01		-0.76	0.000
402.85	18.154	-17.320	52.20	0.43	5.155	3.081	1.87		-0.76	0.000
403.12	18.095	-17.524	52.25	0.43	5.078	3.017	-60.23		-0.76	0.000
403.40	18.007	-17.668	52.34	0.43	4.955	2.943	-80.64		-0.76	0.000
403.68	17.919	-17.776	52.43	0.43	4.832	2.862	-72.61		-0.76	0.000
403.94	17.860	-17.837	52.49	0.43	4.707	2.786	-58.23		-0.76	0.000
404.22	17.770	-17.849	52.58	0.43	4.600	2.714	-45.09		-0.76	0.000
404.49	17.679	-17.813	52.67	0.43	4.500	2.657	-44.91		-0.76	0.000
404.77	17.593	-17.740	52.76	0.43	4.406	2.605	-36.73		-0.76	0.000
405.04	17.533	-17.608	52.82	0.43	4.338	2.579	-15.09		-0.76	0.000
405.31	17.445	-17.428	52.90	0.43	4.295	2.540	42.09		-0.76	0.000
405.58	17.358	-17.212	52.99	0.43	4.234	2.499	68.51		-0.77	0.000
405.85	17.301	-16.947	53.05	0.43	4.197	2.466	105.32		-0.77	0.000
406.12	17.219	-16.635	53.13	0.43	4.156	2.435	111.49		-0.77	0.000
406.40	17.135	-16.286	53.21	0.44	4.121	2.413	109.64		-0.77	0.000
406.67	17.054	-15.889	53.30	0.44	4.092	2.397	110.31		-0.77	0.000
406.94	17.004	-15.433	53.35	0.44	4.073	2.383	110.37		-0.77	0.000
407.22	16.928	-14.964	53.42	0.44	4.025	2.370	110.14		-0.77	0.000
407.49	16.854	-14.447	53.50	0.44	4.025	2.357	110.04		-0.77	0.000
407.76	16.807	-13.882	53.54	0.44	4.006	2.350	110.02		-0.77	0.000
408.04	16.738	-13.293	53.61	0.44	3.990	2.337	120.91		-0.77	0.000
408.31	16.675	-12.656	53.68	0.44	3.980	2.325	121.56		-0.77	0.000
408.58	16.613	-11.983	53.74	0.44	3.955	2.311	114.75		-0.77	0.000
408.85	16.574	-11.286	53.78	0.44	3.948	2.302	84.88		-0.77	0.000
409.13	16.519	-10.553	53.83	0.44	3.939	2.294	71.43		-0.77	0.000
409.39	16.470	-9.820	53.88	0.44	3.925	2.289	38.57		-0.77	0.000
409.66	16.437	-9.038	53.91	0.44	3.919	2.283	12.16		-0.77	0.000
409.93	16.393	-8.257	53.96	0.44	3.910	2.278	-40.10		-0.77	0.000
410.20	16.354	-7.428	54.00	0.44	3.914	2.277	-76.26		-0.77	0.000
410.48	16.331	-6.599	54.02	0.44	3.907	2.273	-149.93		-0.77	0.000
410.75	16.301	-5.745	54.05	0.44	3.902	2.270	-182.70		-0.77	0.000
411.02	16.275	-4.868	54.08	0.44	3.901	2.267	-234.47		-0.77	0.000
411.30	16.257	-3.966	54.09	0.44	3.895	2.264	-242.51		-0.77	0.000
411.57	16.240	-3.077	54.11	0.44	3.907	2.263	-248.37		-0.77	0.000
411.84	16.230	-2.151	54.12	0.44	3.901	2.264	-248.94		-0.77	0.000
412.11	16.224	-1.238	54.13	0.44	3.900	2.265	-249.16		-0.77	0.000
412.38	16.222	-0.337	54.13	0.44	3.907	2.266	-259.55		-0.77	0.000
412.65	16.221	0.553	54.13	0.44	3.901	2.269	-281.79		-0.77	0.000
412.92	16.221	1.490	54.13	0.44	3.912	2.270	-289.26		-0.77	0.000
413.19	16.221	2.380	54.13	0.44	3.909	2.273	-267.31		-0.77	0.000
413.47	16.226	3.269	54.12	0.44	3.919	2.276	-237.07		-0.77	0.000
413.74	16.248	4.171	54.10	0.44	3.914	2.279	-161.08		-0.77	0.000
414.01	16.272	5.060	54.08	0.44	3.926	2.280	-124.89		-0.77	0.000
414.28	16.290	5.925	54.06	0.44	3.927	2.283	-60.60		-0.77	0.000
414.55	16.322	6.779	54.03	0.44	3.936	2.286	-35.60		-0.77	0.000
414.82	16.361	7.620	53.99	0.44	3.942	2.289	22.28		-0.77	0.000
415.09	16.387	8.438	53.96	0.44	3.935	2.292	49.87		-0.77	0.000
415.36	16.431	9.219	53.92	0.44	3.943	2.292	117.48		-0.77	0.000
415.63	16.480	9.976	53.87	0.44	3.941	2.295	146.25		-0.77	0.000
415.89	16.513	10.709	53.84	0.44	3.953	2.298	173.23		-0.77	0.000
416.17	16.567	11.442	53.78	0.44	3.962	2.300	208.76		-0.77	0.000
416.44	16.628	12.103	53.72	0.44	3.967	2.305	221.13		-0.77	0.000
416.71	16.690	12.764	53.66	0.44	3.975	2.310	220.79		-0.77	0.000
416.98	16.733	13.389	53.62	0.44	3.982	2.315	204.31		-0.77	0.000
417.26	16.803	13.978	53.55	0.44	3.991	2.322	191.83		-0.77	0.000
417.53	16.872	14.531	53.48	0.44	4.005	2.325	167.92		-0.77	0.000
417.80	16.922	15.036	53.43	0.44	4.019	2.331	152.43		-0.77	0.000
418.06	16.998	15.517	53.35	0.44	4.034	2.338	135.34		-0.77	0.000
418.34	17.078	15.937	53.27	0.44	4.041	2.345	94.06		-0.77	0.000
418.61	17.131	16.322	53.22	0.44	4.058	2.354	82.49		-0.77	0.000
418.89	17.213	16.683	53.14	0.43	4.068	2.363	69.76		-0.77	0.000
419.15	17.299	16.983	53.05	0.43	4.080	2.370	59.57		-0.77	0.000
419.43	17.383	17.248	52.97	0.43	4.097	2.378	34.85		-0.77	0.000
419.69	17.442	17.452	52.91	0.43	4.113	2.384	20.55		-0.77	0.000
419.96	17.530	17.632	52.82	0.43	4.138	2.389	-11.38		-0.77	0.000
420.23	17.619	17.740	52.73	0.43	4.171	2.403	-30.18		-0.77	0.000
420.50	17.677	17.825	52.67	0.43	4.203	2.415	-66.89		-0.77	0.000
420.77	17.767	17.849	52.58	0.43	4.242	2.433	-81.22		-0.77	0.000
421.04	17.854	17.837	52.50	0.43	4.258	2.451	-89.96		-0.77	0.000
421.31	17.916	17.776	52.43	0.43	4.301	2.469	-90.22		-0.77	0.000
421.59	18.003	17.668	52.35	0.43	4.345	2.492	-119.48		-0.77	0.000
421.86	18.090	17.512	52.26	0.43	4.393	2.521	-139.79		-0.77	0.000
422.14	18.149	17.308	52.20	0.43	4.450	2.552	-177.46		-0.77	0.000
422.41	18.235	17.055	52.11	0.43	4.511	2.571	-197.37		-0.77	0.000
422.69	18.318	16.767	52.03	0.43	4.581	2.612	-242.91		-0.77	0.000
422.96	18.404	16.418	51.95	0.42	4.657	2.661	-270.63		-0.77	0.000
423.24	18.457	16.034	51.89	0.42	4.745	2.718	-272.15		-0.77	0.000
423.50	18.536	15.613	51.81	0.42	4.827	2.780	-264.88		-0.77	0.000
423.78	18.612	15.144	51.74	0.42	4.875	2.844	-265.44		-0.77	0.000
424.06	18.688	14.639	51.66	0.42	4.981	2.913	-265.70		-0.77	0.000
424.32	18.735	14.099	51.61	0.42	5.089	2.987	-260.10		-0.77	0.000
424.60	18.804	13.510	51.55	0.42	5.203	3.068	-229.01		-0.77	0.000
424.87	18.870	12.897	51.48	0.42	5.303	3.145	-203.43		-0.77	0.000
425.14	18.911	12.248	51.44	0.42	5.409	3.188	-150.50		-0.77	0.000
425.41	18.970	11.563	51.38	0.42	5.514	3.270	-113.61		-0.77	0.000
425.69	19.027	10.853	51.32	0.42	5.616	3.353	-27.12		-0.77	0.000
425.96	19.080	10.108	51.27	0.42	5.667	3.437	15.89		-0.77	0.000
426.23	19.112	9.327	51.24	0.42	5.758	3.519	60.63		-0.77	0.000
426.50	19.158	8.546	51.19	0.42	5.847	3.598	71.92		-0.77	0.000
426.77	19.198	7.740	51.15	0.42	5.925	3.672	84.89		-0.77	0.000
427.04	19.221	6.899	51.13	0.42	5.999	3.738	90.48		-0.77	0.000
427.31	19.253	6.058	51.10	0.42	6.059	3.799	111.40		-0.77	0.000
427.59	19.280	5.192	51.07	0.42	6.121	3.829	116.54		-0.77	0.000
427.85	19.293	4.303	51.06	0.42	6.177	3.883	108.86		-0.77	0.000
428.12	19.312	3.413	51.04	0.42	6.183	3.931	95.46		-0.77	0.000
428.39	19.327	2.524	51.02	0.42	6.221	3.970	57.05		-0.77	0.000
428.66	19.334	1.635	51.02	0.42	6.238	3.997	35.20		-0.77	0.000
428.92	19.338	0.709	51.01	0.42	6.250	4.016	16.25		-0.77	0.000
429.19	19.339	-0.156	51.01	0.42	6.257	4.027	-9.76		-0.77	0.000
429.45	19.339	-1.034	51.01	0.42	6.249	4.032	-25.46		-0.77	0.000
429.72	19.339	-1.935	51.01	0.42	6.252	4.033	-56.08		-0.77	0.000
429.99	19.339	-2.812	51.01	0.42	6.245	4.030	-65.32		-0.77	0.000
430.27	19.325	-3.714	51.03	0.42	6.247	4.024	-73.34		-0.77	0.000
430.54	19.303	-4.591	51.05	0.42	6.244	4.019	-65.74		-0.77	0.000
430.82	19.277	-5.481	51.07	0.42	6.228	4.015	-33.84		-0.77	0.000
431.09	19.248	-6.346	51.10	0.42	6.218	4.008	-12.31		-0.77	0.000
431.36	19.225	-7.212	51.13	0.42	6.189	3.995	29.20		-0.77	0.000
431.63	19.186	-8.041	51.16	0.42	6.154	3.967	41.01		-0.77	0.000
431.90	19.143	-8.846	51.21	0.42	6.141	3.929	38.58		-0.77	0.000
432.17	19.112	-9.615	51.24	0.42	6.137	3.914	37.89		-0.77	0.000
432.44	19.062	-10.385	51.29	0.42	6.133	3.893	53.70		-0.77	0.000
432.71	19.008	-11.094	51.34	0.42	6.105	3.875	59.29		-0.77	0.000
432.99	18.971	-11.815	51.38	0.42	6.061	3.861	41.05		-0.77	0.000
433.25	18.909	-12.464	51.44	0.42	5.991	3.827	7.97		-0.77	0.000
433.53	18.847	-13.113	51.50	0.42	5.916	3.771	-92.86		-0.77	0.000
433.80	18.777	-13.714	51.57	0.42	5.823	3.700	-144.13		-0.77	0.000
434.08	18.731	-14.291	51.62	0.42	5.746	3.620	-229.92		-0.77	0.000
434.36	18.658	-14.820	51.69	0.42	5.653	3.539	-276.42		-0.77	0.000
434.63	18.584	-15.325	51.77	0.42	5.559	3.451	-278.03		-0.77	0.000
434.91	18.506	-15.781	51.84	0.42	5.518	3.406	-290.40		-0.77	0.000
435.19	18.453	-16.190	51.90	0.42	5.429	3.315	-299.76		-0.77	0.000
435.46	18.370	-16.563	51.98	0.42	5.357	3.229	-335.18		-0.77	0.000
435.74	18.285	-16.887	52.06	0.43	5.280	3.150	-350.11		-0.77	0.000
436.01	18.201	-17.163	52.15	0.43	5.189	3.076	-351.58		-0.77	0.000
436.29	18.145	-17.392	52.20	0.43	5.105	3.013	-343.78		-0.77	0.000
436.56	18.056	-17.584	52.29	0.43	4.972	2.949	-330.87		-0.77	0.000
436.84	17.970	-17.716	52.38	0.43	4.870	2.869	-327.19		-0.77	0.000
437.11	17.879	-17.813	52.47	0.43	4.728	2.792	-347.05		-0.77	0.000
437.38	17.821	-17.849	52.53	0.43	4.618	2.724	-367.29		-0.77	0.000
437.66	17.730	-17.849	52.62	0.43	4.570	2.661	-381.69		-0.77	0.000
437.94	17.642	-17.788	52.71	0.43	4.456	2.608	-374.79		-0.77	0.000
438.21	17.583	-17.692	52.77	0.43	4.374	2.584	-329.29		-0.77	0.000
438.49	17.494	-17.536	52.86	0.43	4.301	2.539	-309.57		-0.77	0.000
438.76	17.407	-17.344	52.94	0.43	4.236	2.502	-278.93		-0.77	0.000
439.04	17.321	-17.103	53.03	0.43	4.184	2.465	-261.73		-0.77	0.000
439.31	17.265	-16.815	53.09	0.43	4.140	2.435	-202.72		-0.77	0.000
439.59	17.181	-16.478	53.17	0.43	4.119	2.411	-169.31		-0.77	0.000
439.87	17.101	-16.094	53.25	0.44	4.083	2.390	-121.00		-0.77	0.000
440.14	17.020	-15.685	53.33	0.44	4.063	2.377	-103.59		-0.77	0.000
440.42	16.970	-15.204	53.38	0.44	4.039	2.361	-67.88		-0.77	0.000
440.69	16.893	-14.712	53.46	0.44	4.029	2.352	-49.16		-0.77	0.000
440.96	16.822	-14.159	53.53	0.44	4.008	2.338	-40.04		-0.77	0.000
441.24	16.753	-13.582	53.60	0.44	3.989	2.323	-1.73		-0.77	0.000
441.51	16.708	-12.969	53.64	0.44	3.974	2.318	32.14		-0.77	0.000
441.78	16.647	-12.308	53.70	0.44	3.957	2.305	90.35		-0.77	0.000
442.05	16.588	-11.635	53.76	0.44	3.948	2.297	89.57		-0.77	0.000
442.33	16.549	-10.913	53.80	0.44	3.930	2.288	44.15		-0.77	0.000
442.59	16.495	-10.192	53.85	0.44	3.929	2.280	14.66		-0.77	0.000
442.87	16.445	-9.411	53.90	0.44	3.909	2.273	-40.49		-0.77	0.000
443.14	16.401	-8.642	53.95	0.44	3.908	2.266	-67.50		-0.77	0.000
443.41	16.375	-7.813	53.98	0.44	3.906	2.263	-114.92		-0.77	0.000
443.69	16.339	-6.995	54.01	0.44	3.895	2.258	-127.93		-0.77	0.000
443.96	16.304	-6.130	54.05	0.44	3.904	2.256	-155.30		-0.77	0.000
444.23	16.287	-5.264	54.06	0.44	3.893	2.254	-177.65		-0.77	0.000
444.51	16.265	-4.375	54.09	0.44	3.884	2.252	-232.09		-0.77	0.000
444.78	16.247	-3.486	54.10	0.44	3.891	2.249	-238.38		-0.77	0.000
445.05	16.231	-2.560	54.12	0.44	3.897	2.250	-192.97		-0.77	0.000
445.32	16.228	-1.647	54.12	0.44	3.889	2.250	-150.72		-0.77	0.000
445.59	16.220	-0.733	54.13	0.44	3.900	2.252	-51.38		-0.77	0.000
445.86	16.220	0.156	54.13	0.44	3.904	2.254	6.52		-0.77	0.000
446.12	16.220	1.070	54.13	0.44	3.899	2.258	74.88		-0.77	0.000
446.38	16.220	1.959	54.13	0.44	3.913	2.260	80.38		-0.77	0.000
446.65	16.220	2.837	54.13	0.44	3.916	2.263	38.61		-0.77	0.000
446.91	16.234	3.702	54.12	0.44	3.906	2.265	7.20		-0.77	0.000
447.18	16.256	4.567	54.09	0.44	3.919	2.266	-21.23		-0.77	0.000
447.45	16.274	5.433	54.08	0.44	3.914	2.268	-46.82		-0.77	0.000
447.72	16.301	6.286	54.05	0.44	3.922	2.272	-50.75		-0.77	0.000
448.00	16.337	7.127	54.01	0.44	3.937	2.274	-64.92		-0.77	0.000
448.27	16.374	7.945	53.98	0.44	3.935	2.277	-79.29		-0.77	0.000
448.54	16.402	8.762	53.95	0.44	3.937	2.279	-142.48		-0.77	0.000
448.81	16.448	9.555	53.90	0.44	3.934	2.282	-184.75		-0.77	0.000
449.08	16.497	10.300	53.85	0.44	3.943	2.285	-235.96		-0.77	0.000
449.35	16.533	11.034	53.82	0.44	3.950	2.288	-236.02		-0.77	0.000
449.63	16.590	11.743	53.76	0.44	3.948	2.290	-231.00		-0.77	0.000
449.91	16.651	12.416	53.70	0.44	3.962	2.295	-214.93		-0.77	0.000
450.17	16.713	13.065	53.64	0.44	3.970	2.301	-213.62		-0.77	0.000
450.45	16.758	13.678	53.59	0.44	3.990	2.308	-220.22		-0.77	0.000
450.72	16.829	14.243	53.52	0.44	3.988	2.313	-224.02		-0.77	0.000
451.00	16.902	14.796	53.45	0.44	4.006	2.317	-220.42		-0.77	0.000
451.27	16.952	15.276	53.40	0.44	4.019	2.323	-203.34		-0.77	0.000
451.54	17.030	15.733	53.32	0.44	4.032	2.330	-173.16		-0.77	0.000
451.82	17.108	16.142	53.24	0.44	4.046	2.338	-155.64		-0.77	0.000
452.09	17.192	16.514	53.16	0.43	4.048	2.343	-101.96		-0.77	0.000
452.36	17.244	16.851	53.11	0.43	4.071	2.351	-64.31		-0.77	0.000
452.63	17.331	17.127	53.02	0.43	4.074	2.357	28.26		-0.77	0.000
452.90	17.416	17.356	52.93	0.43	4.094	2.365	69.34		-0.77	0.000
453.17	17.476	17.548	52.87	0.43	4.124	2.374	136.96		-0.77	0.000
453.44	17.562	17.692	52.79	0.43	4.146	2.385	145.73		-0.77	0.000
453.71	17.652	17.800	52.70	0.43	4.186	2.393	133.41		-0.77	0.000
453.98	17.711	17.849	52.64	0.43	4.216	2.408	119.27		-0.77	0.000
454.25	17.801	17.849	52.55	0.43	4.236	2.427	78.99		-0.77	0.000
454.53	17.890	17.813	52.46	0.43	4.272	2.445	63.94		-0.77	0.000
454.79	17.949	17.728	52.40	0.43	4.310	2.466	29.67		-0.77	0.000
455.06	18.036	17.584	52.31	0.43	4.359	2.489	6.61		-0.77	0.000
455.33	18.125	17.416	52.23	0.43	4.417	2.518	-27.29		-0.77	0.000
455.60	18.211	17.188	52.14	0.43	4.465	2.555	-104.58		-0.77	0.000
455.88	18.267	16.923	52.08	0.43	4.536	2.573	-139.72		-0.77	0.000
456.15	18.351	16.611	52.00	0.43	4.574	2.617	-186.66		-0.77	0.000
456.42	18.434	16.250	51.92	0.42	4.648	2.668	-187.89		-0.77	0.000
456.69	18.488	15.841	51.86	0.42	4.736	2.725	-194.17		-0.77	0.000
456.97	18.565	15.397	51.79	0.42	4.820	2.787	-216.93		-0.77	0.000
457.24	18.642	14.916	51.71	0.42	4.913	2.852	-216.91		-0.77	0.000
457.51	18.713	14.387	51.64	0.42	5.023	2.920	-202.20		-0.77	0.000
457.78	18.762	13.834	51.59	0.42	5.131	2.993	-190.81		-0.77	0.000
458.06	18.829	13.233	51.52	0.42	5.238	3.074	-155.56		-0.77	0.000
458.33	18.894	12.608	51.46	0.42	5.340	3.152	-133.01		-0.77	0.000
458.60	18.934	11.935	51.42	0.42	5.448	3.193	-97.00		-0.77	0.000
458.88	18.993	11.226	51.36	0.42	5.505	3.277	-82.33		-0.77	0.000
459.15	19.047	10.505	51.30	0.42	5.593	3.362	-65.21		-0.77	0.000
459.42	19.097	9.748	51.25	0.42	5.693	3.446	-52.92		-0.77	0.000
459.69	19.129	8.966	51.22	0.42	5.784	3.528	1.01		-0.77	0.000
459.96	19.171	8.173	51.18	0.42	5.859	3.606	36.21		-0.77	0.000
460.22	19.211	7.356	51.14	0.42	5.938	3.677	65.81		-0.77	0.000
460.49	19.233	6.526	51.12	0.42	6.002	3.742	72.56		-0.77	0.000
460.77	19.263	5.673	51.09	0.42	6.046	3.773	68.97		-0.77	0.000
461.04	19.288	4.808	51.06	0.42	6.093	3.831	67.57		-0.77	0.000
461.30	19.302	3.906	51.05	0.42	6.146	3.884	62.78		-0.77	0.000
461.57	19.317	3.017	51.03	0.42	6.177	3.925	56.04		-0.77	0.000
461.83	19.326	2.127	51.02	0.42	6.211	3.958	57.78		-0.77	0.000
462.11	19.335	1.226	51.01	0.42	6.226	3.984	73.56		-0.77	0.000
462.37	19.336	0.349	51.01	0.42	6.217	4.000	79.46		-0.77	0.000
462.64	19.336	-0.553	51.01	0.42	6.223	4.007	68.67		-0.77	0.000
462.90	19.336	-1.442	51.01	0.42	6.221	4.008	56.95		-0.77	0.000
463.17	19.336	-2.356	51.01	0.42	6.221	4.007	64.91		-0.77	0.000
463.44	19.329	-3.221	51.02	0.42	6.224	4.006	81.56		-0.77	0.000
463.71	19.318	-4.099	51.03	0.42	6.216	3.999	120.82		-0.77	0.000
463.98	19.292	-4.964	51.06	0.42	6.214	3.995	125.68		-0.77	0.000
464.26	19.263	-5.853	51.09	0.42	6.204	3.993	110.52		-0.77	0.000
464.53	19.244	-6.707	51.11	0.42	6.177	3.983	90.36		-0.77	0.000
464.81	19.206	-7.548	51.14	0.42	6.161	3.963	22.00		-0.77	0.000
465.08	19.167	-8.377	51.18	0.42	6.128	3.933	-20.42		-0.77	0.000
465.36	19.121	-9.183	51.23	0.42	6.122	3.913	-111.39		-0.77	0.000
465.63	19.090	-9.952	51.26	0.42	6.107	3.883	-149.02		-0.77	0.000
465.91	19.038	-10.721	51.31	0.42	6.092	3.862	-193.07		-0.77	0.000
466.18	18.983	-11.430	51.37	0.42	6.061	3.848	-213.79		-0.77	0.000
466.46	18.922	-12.139	51.43	0.42	5.991	3.829	-247.86		-0.77	0.000
466.73	18.883	-12.788	51.47	0.42	5.913	3.784	-267.86		-0.77	0.000
467.01	18.816	-13.425	51.53	0.42	5.836	3.721	-260.60		-0.77	0.000
467.29	18.747	-14.014	51.60	0.42	5.750	3.645	-227.33		-0.77	0.000
467.55	18.676	-14.567	51.67	0.42	5.656	3.562	-202.27		-0.77	0.000
467.83	18.627	-15.096	51.72	0.42	5.622	3.480	-146.25		-0.77	0.000
468.11	18.551	-15.553	51.80	0.42	5.527	3.390	-115.51		-0.77	0.000
468.38	18.472	-15.986	51.88	0.42	5.447	3.298	-45.57		-0.77	0.000
468.65	18.418	-16.394	51.93	0.42	5.369	3.255	-21.41		-0.77	0.000
468.92	18.335	-16.731	52.01	0.43	5.287	3.174	25.82		-0.77	0.000
469.18	18.251	-17.019	52.10	0.43	5.218	3.100	43.27		-0.77	0.000
469.46	18.193	-17.272	52.16	0.43	5.141	3.031	67.24		-0.77	0.000
469.73	18.106	-17.476	52.24	0.43	5.010	2.971	74.26		-0.77	0.000
470.01	18.020	-17.644	52.33	0.43	4.955	2.904	54.18		-0.77	0.000
470.27	17.931	-17.764	52.42	0.43	4.830	2.827	36.50		-0.77	0.000
470.55	17.869	-17.837	52.48	0.43	4.707	2.753	0.89		-0.77	0.000
470.81	17.783	-17.849	52.57	0.43	4.590	2.717	-13.39		-0.77	0.000
471.09	17.690	-17.837	52.66	0.43	4.491	2.655	-43.84		-0.77	0.000
471.37	17.633	-17.764	52.72	0.43	4.396	2.603	-70.78		-0.77	0.000
471.64	17.544	-17.644	52.81	0.43	4.320	2.556	-142.41		-0.77	0.000
471.91	17.457	-17.476	52.89	0.43	4.241	2.516	-180.89		-0.77	0.000
472.18	17.369	-17.272	52.98	0.43	4.193	2.478	-250.77		-0.77	0.000
472.46	17.312	-17.019	53.04	0.43	4.172	2.446	-278.06		-0.77	0.000
472.74	17.228	-16.707	53.12	0.43	4.128	2.418	-294.59		-0.77	0.000
473.01	17.147	-16.358	53.20	0.43	4.106	2.398	-279.02		-0.77	0.000
473.28	17.090	-15.962	53.26	0.44	4.070	2.381	-245.03		-0.77	0.000
473.56	17.012	-15.529	53.34	0.44	4.054	2.367	-242.00		-0.77	0.000
473.83	16.937	-15.060	53.41	0.44	4.030	2.361	-266.51		-0.77	0.000
474.10	16.862	-14.543	53.49	0.44	4.004	2.346	-280.29		-0.77	0.000
474.38	16.813	-13.990	53.54	0.44	3.988	2.335	-285.04		-0.77	0.000
474.65	16.745	-13.401	53.60	0.44	3.972	2.321	-282.97		-0.77	0.000
474.93	16.680	-12.776	53.67	0.44	3.959	2.310	-289.89		-0.77	0.000
475.20	16.617	-12.103	53.73	0.44	3.942	2.299	-305.79		-0.77	0.000
475.48	16.579	-11.406	53.77	0.44	3.932	2.288	-358.16		-0.77	0.000
475.76	16.524	-10.685	53.83	0.44	3.920	2.280	-396.38		-0.77	0.000
476.03	16.472	-9.916	53.88	0.44	3.910	2.273	-473.95		-0.77	0.000
476.31	16.426	-9.135	53.92	0.44	3.906	2.267	-498.49		-0.77	0.000
476.58	16.397	-8.317	53.95	0.44	3.892	2.261	-514.56		-0.77	0.000
476.86	16.358	-7.500	53.99	0.44	3.899	2.257	-500.64		-0.77	0.000
477.14	16.322	-6.647	54.03	0.44	3.883	2.255	-493.07		-0.77	0.000
477.41	16.293	-5.757	54.06	0.44	3.888	2.251	-494.85		-0.77	0.000
477.69	16.275	-4.868	54.08	0.44	3.875	2.250	-499.21		-0.77	0.000
477.96	16.253	-3.978	54.10	0.44	3.879	2.249	-489.17		-0.77	0.000
478.24	16.239	-3.065	54.11	0.44	3.879	2.249	-476.46		-0.77	0.000
478.51	16.224	-2.163	54.13	0.44	3.880	2.249	-446.27		-0.77	0.000
478.78	16.222	-1.238	54.13	0.44	3.887	2.249	-428.10		-0.77	0.000
479.05	16.219	-0.313	54.13	0.44	3.884	2.250	-366.92		-0.77	0.000
479.32	16.219	0.577	54.13	0.44	3.889	2.253	-324.94		-0.77	0.000
479.58	16.219	1.490	54.13	0.44	3.889	2.256	-248.94		-0.77	0.000
479.86	16.219	2.380	54.13	0.44	3.894	2.257	-220.82		-0.77	0.000
480.12	16.229	3.269	54.12	0.44	3.900	2.260	-171.49		-0.77	0.000
480.39	16.240	4.159	54.11	0.44	3.900	2.262	-135.11		-0.77	0.000
480.66	16.265	5.024	54.09	0.44	3.904	2.266	-56.61		-0.77	0.000
480.93	16.293	5.889	54.06	0.44	3.909	2.268	-34.84		-0.77	0.000
481.20	16.313	6.743	54.04	0.44	3.918	2.269	-9.96		-0.77	0.000
481.47	16.351	7.560	54.00	0.44	3.922	2.273	-4.40		-0.77	0.000
481.74	16.390	8.389	53.96	0.44	3.922	2.277	-2.45		-0.77	0.000
482.01	16.421	9.171	53.93	0.44	3.928	2.278	-10.82		-0.77	0.000
482.28	16.470	9.940	53.88	0.44	3.925	2.281	-42.22		-0.77	0.000
482.55	16.520	10.685	53.83	0.44	3.925	2.283	-54.93		-0.77	0.000
482.83	16.556	11.394	53.79	0.44	3.940	2.285	-51.51		-0.77	0.000
483.09	16.613	12.079	53.74	0.44	3.942	2.286	-25.17		-0.77	0.000
483.36	16.678	12.740	53.67	0.44	3.958	2.292	-30.96		-0.77	0.000
483.63	16.742	13.353	53.61	0.44	3.970	2.298	-94.27		-0.77	0.000
483.90	16.788	13.942	53.56	0.44	3.979	2.303	-127.69		-0.77	0.000
484.18	16.860	14.483	53.49	0.44	3.987	2.307	-188.85		-0.77	0.000
484.45	16.931	15.000	53.42	0.44	3.998	2.310	-214.43		-0.77	0.000
484.73	16.984	15.493	53.37	0.44	4.013	2.318	-219.87		-0.77	0.000
485.00	17.062	15.925	53.29	0.44	4.022	2.325	-214.62		-0.77	0.000
485.27	17.143	16.322	53.21	0.44	4.034	2.334	-203.08		-0.77	0.000
485.54	17.224	16.671	53.13	0.43	4.044	2.341	-186.62		-0.77	0.000
485.82	17.281	16.971	53.07	0.43	4.062	2.348	-192.70		-0.77	0.000
486.09	17.367	17.236	52.98	0.43	4.080	2.354	-205.80		-0.77	0.000
486.37	17.453	17.452	52.90	0.43	4.099	2.361	-184.08		-0.77	0.000
486.64	17.512	17.632	52.84	0.43	4.127	2.370	-91.41		-0.77	0.000
486.91	17.601	17.752	52.75	0.43	4.159	2.383	-33.74		-0.77	0.000
487.18	17.690	17.825	52.66	0.43	4.179	2.393	35.13		-0.77	0.000
487.45	17.749	17.849	52.60	0.43	4.209	2.409	47.44		-0.77	0.000
487.72	17.839	17.837	52.51	0.43	4.239	2.426	50.80		-0.77	0.000
487.99	17.926	17.776	52.42	0.43	4.283	2.444	49.17		-0.77	0.000
488.26	17.985	17.668	52.36	0.43	4.328	2.466	36.75		-0.77	0.000
488.52	18.075	17.512	52.28	0.43	4.373	2.491	26.06		-0.77	0.000
488.79	18.161	17.308	52.19	0.43	4.436	2.521	9.04		-0.77	0.000
489.06	18.248	17.067	52.10	0.43	4.462	2.558	5.52		-0.77	0.000
489.32	18.304	16.779	52.05	0.43	4.534	2.578	-4.29		-0.77	0.000
489.60	18.386	16.454	51.96	0.42	4.603	2.626	-18.43		-0.77	0.000
489.87	18.467	16.082	51.88	0.42	4.680	2.679	-21.06		-0.77	0.000
490.14	18.521	15.661	51.83	0.42	4.764	2.736	12.65		-0.77	0.000
490.41	18.598	15.192	51.75	0.42	4.856	2.798	29.16		-0.77	0.000
490.67	18.674	14.700	51.68	0.42	4.964	2.863	47.50		-0.77	0.000
490.94	18.721	14.171	51.63	0.42	5.023	2.933	52.73		-0.77	0.000
491.22	18.790	13.606	51.56	0.42	5.122	2.970	69.58		-0.77	0.000
491.48	18.856	13.017	51.49	0.42	5.234	3.050	84.15		-0.77	0.000
491.75	18.898	12.356	51.45	0.42	5.331	3.130	143.24		-0.77	0.000
492.03	18.959	11.695	51.39	0.42	5.442	3.213	174.72		-0.77	0.000
492.29	19.016	10.998	51.33	0.42	5.539	3.296	231.24		-0.77	0.000
492.56	19.052	10.264	51.30	0.42	5.646	3.380	236.98		-0.77	0.000
492.83	19.101	9.507	51.25	0.42	5.729	3.462	200.11		-0.77	0.000
493.10	19.147	8.726	51.20	0.42	5.778	3.538	182.69		-0.77	0.000
493.37	19.174	7.921	51.18	0.42	5.856	3.612	142.34		-0.77	0.000
493.64	19.211	7.103	51.14	0.42	5.927	3.646	125.99		-0.77	0.000
493.91	19.244	6.250	51.11	0.42	6.005	3.712	63.57		-0.77	0.000
494.17	19.262	5.409	51.09	0.42	6.055	3.774	15.66		-0.77	0.000
494.44	19.285	4.543	51.06	0.42	6.108	3.826	-103.17		-0.77	0.000
494.72	19.307	3.678	51.04	0.42	6.151	3.875	-170.99		-0.77	0.000
494.99	19.321	2.776	51.03	0.42	6.165	3.914	-313.01		-0.77	0.000
495.26	19.329	1.875	51.02	0.42	6.184	3.944	-382.38		-0.77	0.000
495.53	19.333	0.962	51.02	0.42	6.208	3.963	-469.35		-0.77	0.000
495.79	19.335	0.048	51.01	0.42	6.215	3.970	-495.06		-0.77	0.000
496.06	19.335	-0.841	51.01	0.42	6.213	3.980	-535.36		-0.77	0.000
496.33	19.335	-1.743	51.01	0.42	6.214	3.981	-547.37		-0.77	0.000
496.60	19.335	-2.644	51.01	0.42	6.212	3.980	-574.02		-0.77	0.000
496.88	19.324	-3.534	51.03	0.42	6.201	3.975	-578.54		-0.77	0.000
497.15	19.304	-4.423	51.05	0.42	6.203	3.971	-552.95		-0.77	0.000
497.42	19.279	-5.300	51.07	0.42	6.196	3.968	-527.96		-0.77	0.000
497.70	19.261	-6.190	51.09	0.42	6.188	3.962	-446.47		-0.77	0.000
497.98	19.227	-7.043	51.12	0.42	6.159	3.951	-393.94		-0.77	0.000
498.25	19.190	-7.885	51.16	0.42	6.122	3.937	-281.62		-0.77	0.000
498.53	19.147	-8.702	51.20	0.42	6.105	3.903	-226.20		-0.77	0.000
498.81	19.117	-9.507	51.23	0.42	6.094	3.868	-113.33		-0.77	0.000
499.07	19.067	-10.276	51.28	0.42	6.088	3.840	-57.42		-0.77	0.000
499.34	19.013	-11.022	51.34	0.42	6.060	3.826	39.86		-0.77	0.000
499.61	18.956	-11.707	51.39	0.42	6.042	3.809	79.29		-0.77	0.000
499.89	18.917	-12.380	51.43	0.42	5.972	3.782	139.35		-0.77	0.000
500.16	18.854	-13.029	51.50	0.42	5.896	3.724	153.84		-0.77	0.000
500.44	18.788	-13.654	51.56	0.42	5.797	3.656	146.02		-0.77	0.000
500.71	18.740	-14.219	51.61	0.42	5.717	3.577	124.46		-0.77	0.000
500.98	18.668	-14.760	51.68	0.42	5.632	3.533	79.19		-0.77	0.000
501.25	18.594	-15.252	51.76	0.42	5.539	3.449	54.03		-0.77	0.000
501.52	18.515	-15.709	51.84	0.42	5.458	3.358	-9.17		-0.77	0.000
501.79	18.463	-16.118	51.89	0.42	5.391	3.268	-50.81		-0.77	0.000
502.07	18.380	-16.490	51.97	0.42	5.331	3.184	-140.45		-0.77	0.000
502.34	18.298	-16.815	52.05	0.43	5.275	3.107	-173.86		-0.77	0.000
502.62	18.242	-17.115	52.11	0.43	5.191	3.035	-212.48		-0.77	0.000
502.89	18.156	-17.344	52.19	0.43	5.104	2.968	-223.76		-0.77	0.000
503.17	18.067	-17.548	52.28	0.43	4.988	2.913	-211.88		-0.77	0.000
503.46	17.980	-17.692	52.37	0.43	4.852	2.842	-175.70		-0.77	0.000
503.73	17.920	-17.800	52.43	0.43	4.737	2.769	-161.07		-0.77	0.000
504.01	17.831	-17.849	52.52	0.43	4.606	2.702	-126.87		-0.77	0.000
504.29	17.742	-17.849	52.61	0.43	4.517	2.673	-109.91		-0.77	0.000
504.56	17.653	-17.800	52.70	0.43	4.414	2.617	-63.35		-0.77	0.000
504.83	17.593	-17.704	52.76	0.43	4.339	2.569	-43.11		-0.77	0.000
505.10	17.507	-17.572	52.84	0.43	4.296	2.526	-19.73		-0.77	0.000
505.37	17.417	-17.380	52.93	0.43	4.220	2.487	-14.10		-0.77	0.000
505.65	17.331	-17.151	53.02	0.43	4.172	2.453	-7.02		-0.77	0.000
505.92	17.275	-16.875	53.08	0.43	4.119	2.421	-4.42		-0.77	0.000
506.19	17.192	-16.550	53.16	0.43	4.099	2.403	17.25		-0.77	0.000
506.46	17.111	-16.190	53.24	0.44	4.076	2.382	35.99		-0.77	0.000
506.72	17.057	-15.781	53.29	0.44	4.046	2.372	73.45		-0.77	0.000
507.00	16.979	-15.337	53.37	0.44	4.025	2.362	87.28		-0.77	0.000
507.27	16.903	-14.856	53.45	0.44	4.009	2.346	94.30		-0.77	0.000
507.54	16.853	-14.327	53.50	0.44	3.988	2.334	97.98		-0.77	0.000
507.81	16.785	-13.762	53.56	0.44	3.963	2.318	104.76		-0.77	0.000
508.09	16.717	-13.161	53.63	0.44	3.951	2.306	95.41		-0.77	0.000
508.36	16.653	-12.524	53.70	0.44	3.931	2.296	61.91		-0.77	0.000
508.63	16.613	-11.851	53.74	0.44	3.922	2.283	41.47		-0.77	0.000
508.90	16.556	-11.154	53.79	0.44	3.911	2.275	10.84		-0.77	0.000
509.17	16.501	-10.445	53.85	0.44	3.895	2.265	-5.63		-0.77	0.000
509.44	16.467	-9.675	53.88	0.44	3.892	2.262	-72.68		-0.77	0.000
509.72	16.421	-8.906	53.93	0.44	3.877	2.256	-121.34		-0.77	0.000
509.99	16.380	-8.089	53.97	0.44	3.870	2.251	-227.83		-0.77	0.000
510.27	16.342	-7.260	54.01	0.44	3.867	2.244	-262.75		-0.77	0.000
510.54	16.319	-6.394	54.03	0.44	3.861	2.241	-300.29		-0.77	0.000
510.82	16.289	-5.517	54.06	0.44	3.859	2.238	-293.79		-0.77	0.000
511.09	16.265	-4.639	54.09	0.44	3.856	2.238	-246.02		-0.77	0.000
511.36	16.254	-3.750	54.10	0.44	3.861	2.237	-219.33		-0.77	0.000
511.64	16.235	-2.837	54.11	0.44	3.853	2.239	-174.12		-0.77	0.000
511.91	16.226	-1.935	54.12	0.44	3.855	2.240	-173.54		-0.77	0.000
512.18	16.219	-1.022	54.13	0.44	3.855	2.242	-164.89		-0.77	0.000
512.45	16.217	-0.108	54.13	0.44	3.862	2.244	-150.87		-0.77	0.000
512.72	16.217	0.817	54.13	0.44	3.866	2.247	-115.21		-0.77	0.000
512.99	16.217	1.695	54.13	0.44	3.865	2.248	-90.27		-0.77	0.000
513.26	16.217	2.620	54.13	0.44	3.874	2.253	-63.75		-0.77	0.000
513.53	16.230	3.498	54.12	0.44	3.874	2.257	-62.66		-0.77	0.000
513.81	16.252	4.387	54.10	0.44	3.879	2.259	-80.57		-0.77	0.000
514.07	16.266	5.264	54.08	0.44	3.881	2.262	-97.30		-0.77	0.000
514.35	16.297	6.142	54.05	0.44	3.887	2.263	-118.29		-0.77	0.000
514.62	16.329	6.971	54.02	0.44	3.894	2.265	-121.50		-0.77	0.000
514.90	16.367	7.825	53.98	0.44	3.895	2.268	-108.30		-0.77	0.000
515.16	16.395	8.630	53.95	0.44	3.907	2.271	-98.26		-0.77	0.000
515.44	16.439	9.435	53.91	0.44	3.903	2.274	-61.98		-0.77	0.000
515.71	16.490	10.192	53.86	0.44	3.899	2.277	-39.93		-0.77	0.000
515.98	16.524	10.937	53.83	0.44	3.915	2.278	-12.23		-0.77	0.000
516.25	16.580	11.635	53.77	0.44	3.918	2.280	-11.43		-0.77	0.000
516.53	16.640	12.332	53.71	0.44	3.925	2.286	-34.17		-0.77	0.000
516.80	16.704	12.957	53.65	0.44	3.940	2.290	-57.40		-0.77	0.000
517.07	16.749	13.582	53.60	0.44	3.948	2.292	-112.66		-0.77	0.000
517.34	16.817	14.159	53.53	0.44	3.939	2.295	-150.37		-0.77	0.000
517.62	16.890	14.700	53.46	0.44	3.972	2.306	-197.80		-0.77	0.000
517.89	16.940	15.192	53.41	0.44	3.966	2.311	-208.23		-0.77	0.000
518.16	17.017	15.661	53.33	0.44	3.983	2.317	-231.42		-0.77	0.000
518.44	17.095	16.070	53.25	0.44	4.007	2.326	-254.26		-0.77	0.000
518.71	17.179	16.466	53.17	0.43	4.017	2.331	-285.74		-0.77	0.000
518.98	17.233	16.791	53.12	0.43	4.035	2.339	-292.10		-0.77	0.000
519.25	17.319	17.079	53.03	0.43	4.035	2.345	-254.25		-0.77	0.000
519.52	17.404	17.320	52.95	0.43	4.055	2.348	-218.21		-0.77	0.000
519.80	17.462	17.524	52.89	0.43	4.079	2.353	-129.32		-0.77	0.000
520.06	17.549	17.680	52.80	0.43	4.103	2.364	-94.28		-0.77	0.000
520.34	17.639	17.788	52.71	0.43	4.140	2.378	-66.18		-0.77	0.000
520.61	17.727	17.837	52.62	0.43	4.171	2.389	-71.70		-0.77	0.000
520.89	17.788	17.849	52.56	0.43	4.211	2.407	-121.20		-0.77	0.000
521.16	17.876	17.813	52.47	0.43	4.245	2.428	-156.14		-0.77	0.000
521.44	17.965	17.728	52.39	0.43	4.290	2.446	-205.94		-0.77	0.000
521.70	18.025	17.608	52.33	0.43	4.315	2.467	-229.98		-0.77	0.000
521.98	18.112	17.428	52.24	0.43	4.353	2.495	-268.59		-0.77	0.000
522.26	18.198	17.212	52.15	0.43	4.416	2.526	-289.15		-0.77	0.000
522.53	18.283	16.935	52.07	0.43	4.473	2.547	-329.98		-0.77	0.000
522.80	18.339	16.623	52.01	0.43	4.545	2.589	-347.70		-0.77	0.000
523.07	18.421	16.262	51.93	0.42	4.627	2.637	-343.03		-0.77	0.000
523.35	18.501	15.865	51.85	0.42	4.707	2.692	-316.28		-0.77	0.000
523.62	18.553	15.421	51.80	0.42	4.793	2.751	-295.98		-0.77	0.000
523.89	18.629	14.940	51.72	0.42	4.892	2.810	-243.26		-0.77	0.000
524.16	18.703	14.411	51.65	0.42	4.938	2.876	-216.73		-0.77	0.000
524.44	18.774	13.870	51.58	0.42	5.053	2.950	-194.47		-0.77	0.000
524.71	18.818	13.269	51.53	0.42	5.160	3.029	-198.45		-0.77	0.000
524.98	18.883	12.632	51.47	0.42	5.265	3.108	-227.07		-0.77	0.000
525.26	18.944	11.959	51.41	0.42	5.361	3.150	-255.21		-0.77	0.000
525.53	18.984	11.262	51.37	0.42	5.477	3.232	-315.26		-0.77	0.000
525.80	19.038	10.541	51.31	0.42	5.570	3.314	-345.30		-0.77	0.000
526.07	19.089	9.784	51.26	0.42	5.671	3.396	-398.66		-0.77	0.000
526.35	19.136	9.002	51.21	0.42	5.764	3.475	-413.00		-0.77	0.000
526.62	19.163	8.209	51.19	0.42	5.796	3.550	-417.29		-0.77	0.000
526.89	19.203	7.368	51.15	0.42	5.884	3.620	-396.36		-0.77	0.000
527.17	19.236	6.526	51.11	0.42	5.958	3.686	-343.86		-0.77	0.000
527.44	19.258	5.661	51.09	0.42	6.017	3.746	-317.46		-0.77	0.000
527.71	19.283	4.784	51.07	0.42	6.081	3.798	-276.29		-0.77	0.000
527.99	19.304	3.882	51.05	0.42	6.131	3.823	-254.72		-0.77	0.000
528.26	19.317	2.993	51.03	0.42	6.163	3.868	-188.40		-0.77	0.000
528.52	19.326	2.079	51.02	0.42	6.190	3.903	-149.76		-0.77	0.000
528.79	19.335	1.178	51.01	0.42	6.212	3.928	-68.07		-0.77	0.000
529.05	19.335	0.276	51.01	0.42	6.214	3.944	-41.63		-0.77	0.000
529.33	19.336	-0.625	51.01	0.42	6.211	3.955	-41.51		-0.77	0.000
529.59	19.336	-1.502	51.01	0.42	6.205	3.960	-68.80		-0.77	0.000
529.86	19.336	-2.416	51.01	0.42	6.201	3.955	-153.49		-0.77	0.000
530.13	19.330	-3.293	51.02	0.42	6.216	3.953	-191.40		-0.77	0.000
530.41	19.311	-4.183	51.04	0.42	6.225	3.946	-218.78		-0.77	0.000
530.68	19.285	-5.060	51.06	0.42	6.193	3.941	-217.64		-0.77	0.000
530.96	19.267	-5.938	51.08	0.42	6.182	3.937	-220.77		-0.77	0.000
531.23	19.235	-6.803	51.11	0.42	6.172	3.931	-225.95		-0.77	0.000
531.51	19.199	-7.656	51.15	0.42	6.139	3.914	-219.88		-0.77	0.000
531.78	19.158	-8.474	51.19	0.42	6.104	3.884	-213.77		-0.77	0.000
532.06	19.127	-9.291	51.22	0.42	6.111	3.845	-170.92		-0.77	0.000
532.33	19.080	-10.060	51.27	0.42	6.106	3.822	-141.01		-0.77	0.000
532.61	19.029	-10.805	51.32	0.42	6.069	3.803	-73.52		-0.77	0.000
532.88	18.971	-11.514	51.38	0.42	6.050	3.790	-41.19		-0.77	0.000
533.16	18.933	-12.224	51.42	0.42	5.966	3.777	-3.48		-0.77	0.000
533.42	18.870	-12.873	51.48	0.42	5.894	3.736	5.40		-0.77	0.000
533.70	18.803	-13.510	51.55	0.42	5.854	3.677	11.14		-0.77	0.000
533.96	18.757	-14.075	51.59	0.42	5.750	3.600	6.22		-0.77	0.000
534.24	18.686	-14.615	51.66	0.42	5.680	3.518	-4.96		-0.77	0.000
534.51	18.611	-15.120	51.74	0.42	5.589	3.429	-14.67		-0.77	0.000
534.78	18.561	-15.589	51.79	0.42	5.508	3.338	-53.85		-0.77	0.000
535.05	18.483	-16.010	51.87	0.42	5.407	3.249	-65.89		-0.77	0.000
535.33	18.402	-16.394	51.95	0.42	5.333	3.170	-89.41		-0.77	0.000
535.61	18.318	-16.731	52.03	0.43	5.258	3.093	-100.14		-0.77	0.000
535.88	18.261	-17.043	52.09	0.43	5.173	3.055	-117.05		-0.77	0.000
536.15	18.176	-17.296	52.17	0.43	5.152	2.988	-124.28		-0.77	0.000
536.42	18.089	-17.500	52.26	0.43	5.033	2.928	-122.67		-0.77	0.000
536.70	18.001	-17.656	52.35	0.43	4.911	2.868	-118.34		-0.77	0.000
536.97	17.942	-17.764	52.41	0.43	4.792	2.797	-97.90		-0.77	0.000
537.25	17.853	-17.837	52.50	0.43	4.656	2.724	-90.43		-0.77	0.000
537.52	17.765	-17.849	52.59	0.43	4.555	2.666	-68.90		-0.77	0.000
537.80	17.674	-17.825	52.68	0.43	4.440	2.611	-69.21		-0.77	0.000
538.07	17.616	-17.752	52.73	0.43	4.365	2.568	-98.17		-0.77	0.000
538.35	17.526	-17.620	52.82	0.43	4.275	2.525	-111.82		-0.77	0.000
