Name           :	1mgmlAuDDT_O15	
User           :	Isaac	
Date           :	8/6/2014	

Probe1         :	Wilhelmy	
Perimeter      : 	39.240	

Probe2         :	Wilhelmy	
Perimeter      : 	39.240	

Trough         :	Extra Small	
Width          :	50.0	
Area           :	7035.0	
Symmetric comp :	True	

Subphase       :	Water	
Surface tension:	72.80	
pH             :	7.00	
Temperature    :	19.5	

Addition       :		
Concentration  :		
Unit           :	Unknown         	

Substance1     :	Au NP	
MW             :	197.0	
Concentration  :	1.000	
Unit           :	mg/ml           	
Volume         :	400.00	

Substance2     :		
MW             : 		
Concentration  : 		
Unit           :	Unknown         	
Volume         : 		

Substrate      :		
Height         : 		
Shape          : 	Rectangle       	
Width          :		
Thickness      :		


t[s]	Bpos	Bspd	A[cm²]	Mma[Å²]	P1[mN/m]	P2[mN/m]	T[°C]	SP[V]	pH	AD[V]
57.51	31.886	13.065	38.46	0.31	14.856	11.561	-207.51		-0.87	0.000
57.79	31.931	13.041	38.42	0.31	14.997	11.562	-232.94		-0.87	0.000
58.06	31.995	12.993	38.36	0.31	15.043	11.589	-257.73		-0.87	0.000
58.33	32.060	12.909	38.29	0.31	15.086	11.657	-264.15		-0.87	0.000
58.61	32.103	12.788	38.25	0.31	15.136	11.716	-263.28		-0.87	0.000
58.88	32.167	12.644	38.18	0.31	15.165	11.744	-251.82		-0.87	0.000
59.16	32.228	12.452	38.12	0.31	15.184	11.799	-237.37		-0.87	0.000
59.43	32.290	12.236	38.06	0.31	15.212	11.825	-240.91		-0.87	0.000
59.71	32.329	11.971	38.02	0.31	15.232	11.851	-258.44		-0.87	0.000
59.98	32.391	11.695	37.96	0.31	15.246	11.882	-273.62		-0.87	0.000
60.26	32.449	11.370	37.90	0.31	15.274	11.908	-327.31		-0.87	0.000
60.53	32.505	11.022	37.84	0.31	15.302	11.934	-360.78		-0.87	0.000
60.80	32.540	10.649	37.81	0.31	15.302	11.962	-439.95		-0.87	0.000
61.07	32.592	10.252	37.76	0.31	15.328	11.978	-476.82		-0.87	0.000
61.35	32.642	9.820	37.71	0.31	15.345	11.994	-507.35		-0.87	0.000
61.62	32.674	9.363	37.68	0.31	15.362	12.013	-501.94		-0.87	0.000
61.90	32.720	8.882	37.63	0.31	15.373	12.023	-470.16		-0.87	0.000
62.17	32.764	8.377	37.59	0.31	15.392	12.041	-441.42		-0.87	0.000
62.45	32.804	7.849	37.55	0.31	15.396	12.057	-372.38		-0.87	0.000
62.72	32.828	7.296	37.52	0.31	15.400	12.070	-330.83		-0.87	0.000
63.00	32.864	6.707	37.49	0.31	15.402	12.083	-271.76		-0.87	0.000
63.27	32.894	6.130	37.46	0.31	15.414	12.091	-245.33		-0.87	0.000
63.54	32.923	5.517	37.43	0.31	15.424	12.096	-236.12		-0.87	0.000
63.82	32.941	4.916	37.41	0.31	15.413	12.101	-207.28		-0.87	0.000
64.09	32.962	4.279	37.39	0.31	15.395	12.102	-198.55		-0.87	0.000
64.37	32.981	3.630	37.37	0.31	15.393	12.102	-195.69		-0.87	0.000
64.65	32.995	2.981	37.36	0.31	15.394	12.095	-196.56		-0.87	0.000
64.92	33.003	2.308	37.35	0.31	15.369	12.087	-192.39		-0.87	0.000
65.19	33.017	1.635	37.33	0.31	15.348	12.078	-188.44		-0.87	0.000
65.46	33.019	0.962	37.33	0.31	15.338	12.063	-167.94		-0.87	0.000
65.73	33.020	0.300	37.33	0.31	15.292	12.042	-146.28		-0.87	0.000
66.00	33.022	-0.349	37.33	0.31	15.269	12.014	-77.69		-0.87	0.000
66.27	33.022	-1.010	37.33	0.31	15.223	11.984	-40.63		-0.87	0.000
66.54	33.022	-1.671	37.33	0.31	15.191	11.954	6.96		-0.87	0.000
66.81	33.022	-2.344	37.33	0.31	15.173	11.922	5.50		-0.87	0.000
67.08	33.011	-2.981	37.34	0.31	15.146	11.890	-34.41		-0.87	0.000
67.35	32.997	-3.630	37.35	0.31	15.120	11.878	-71.45		-0.87	0.000
67.63	32.978	-4.267	37.37	0.31	15.078	11.851	-173.23		-0.87	0.000
67.91	32.955	-4.892	37.39	0.31	15.040	11.821	-234.15		-0.87	0.000
68.19	32.927	-5.529	37.42	0.31	14.995	11.791	-323.47		-0.87	0.000
68.47	32.897	-6.142	37.45	0.31	14.927	11.752	-350.85		-0.87	0.000
68.74	32.877	-6.731	37.47	0.31	14.870	11.695	-392.98		-0.87	0.000
69.02	32.840	-7.308	37.51	0.31	14.840	11.631	-415.82		-0.87	0.000
69.30	32.804	-7.861	37.55	0.31	14.823	11.582	-436.88		-0.87	0.000
69.57	32.760	-8.389	37.59	0.31	14.807	11.545	-430.71		-0.87	0.000
69.85	32.732	-8.906	37.62	0.31	14.763	11.521	-376.53		-0.87	0.000
70.13	32.687	-9.387	37.66	0.31	14.676	11.493	-330.95		-0.87	0.000
70.40	32.640	-9.856	37.71	0.31	14.579	11.425	-221.30		-0.87	0.000
70.68	32.587	-10.288	37.76	0.31	14.534	11.333	-166.84		-0.87	0.000
70.95	32.554	-10.697	37.80	0.31	14.407	11.220	-106.98		-0.87	0.000
71.23	32.499	-11.070	37.85	0.31	14.278	11.155	-114.20		-0.87	0.000
71.51	32.442	-11.406	37.91	0.31	14.146	11.014	-132.21		-0.87	0.000
71.79	32.383	-11.731	37.97	0.31	14.009	10.866	-129.99		-0.87	0.000
72.06	32.346	-12.007	38.00	0.31	13.860	10.711	-119.23		-0.87	0.000
72.34	32.285	-12.260	38.07	0.31	13.724	10.550	-74.63		-0.87	0.000
72.62	32.223	-12.476	38.13	0.31	13.576	10.393	-57.56		-0.87	0.000
72.89	32.159	-12.668	38.19	0.31	13.425	10.236	-87.22		-0.87	0.000
73.17	32.117	-12.812	38.23	0.31	13.266	10.076	-123.27		-0.87	0.000
73.45	32.054	-12.933	38.30	0.31	13.108	9.911	-198.70		-0.87	0.000
73.73	31.987	-13.005	38.36	0.31	12.952	9.740	-219.09		-0.87	0.000
74.01	31.923	-13.053	38.43	0.31	12.876	9.573	-217.07		-0.87	0.000
74.28	31.881	-13.065	38.47	0.31	12.717	9.405	-205.61		-0.87	0.000
74.56	31.814	-13.029	38.54	0.32	12.557	9.238	-183.41		-0.87	0.000
74.84	31.750	-12.969	38.60	0.32	12.411	9.071	-182.07		-0.87	0.000
75.11	31.685	-12.873	38.67	0.32	12.235	8.989	-199.86		-0.87	0.000
75.39	31.642	-12.740	38.71	0.32	12.021	8.825	-209.45		-0.87	0.000
75.67	31.580	-12.572	38.77	0.32	11.817	8.642	-193.02		-0.87	0.000
75.95	31.517	-12.356	38.83	0.32	11.609	8.442	-133.39		-0.87	0.000
76.23	31.454	-12.115	38.90	0.32	11.411	8.245	-111.92		-0.87	0.000
76.50	31.395	-11.851	38.96	0.32	11.256	8.051	-83.46		-0.87	0.000
76.78	31.356	-11.550	38.99	0.32	11.095	7.875	-66.78		-0.87	0.000
77.06	31.299	-11.214	39.05	0.32	10.937	7.722	-35.82		-0.87	0.000
77.33	31.244	-10.853	39.11	0.32	10.819	7.579	-22.65		-0.87	0.000
77.60	31.210	-10.457	39.14	0.32	10.764	7.450	-4.79		-0.87	0.000
77.87	31.156	-10.036	39.19	0.32	10.647	7.343	4.03		-0.87	0.000
78.15	31.108	-9.591	39.24	0.32	10.554	7.244	29.44		-0.87	0.000
78.42	31.063	-9.135	39.29	0.32	10.472	7.152	37.96		-0.87	0.000
78.69	31.031	-8.642	39.32	0.32	10.377	7.111	50.72		-0.87	0.000
78.97	30.990	-8.125	39.36	0.32	10.308	7.032	58.98		-0.87	0.000
79.24	30.951	-7.584	39.40	0.32	10.257	6.955	78.13		-0.87	0.000
79.51	30.915	-7.031	39.43	0.32	10.196	6.891	92.95		-0.87	0.000
79.79	30.892	-6.454	39.46	0.32	10.149	6.833	107.63		-0.87	0.000
80.06	30.862	-5.853	39.49	0.32	10.142	6.785	108.80		-0.87	0.000
80.34	30.836	-5.240	39.51	0.32	10.095	6.745	106.55		-0.87	0.000
80.61	30.818	-4.627	39.53	0.32	10.073	6.712	108.36		-0.87	0.000
80.88	30.799	-3.978	39.55	0.32	10.055	6.686	102.04		-0.87	0.000
81.16	30.782	-3.341	39.57	0.32	10.036	6.670	91.53		-0.87	0.000
81.44	30.765	-2.680	39.58	0.32	10.015	6.653	54.55		-0.87	0.000
81.71	30.762	-2.007	39.59	0.32	10.013	6.647	34.73		-0.87	0.000
81.98	30.754	-1.334	39.60	0.32	10.006	6.638	45.87		-0.87	0.000
82.25	30.749	-0.673	39.60	0.32	10.009	6.634	64.03		-0.87	0.000
82.51	30.747	-0.012	39.60	0.32	10.008	6.633	81.90		-0.87	0.000
82.78	30.747	0.649	39.60	0.32	10.013	6.634	70.88		-0.87	0.000
83.05	30.747	1.310	39.60	0.32	10.015	6.638	22.89		-0.87	0.000
83.31	30.747	1.947	39.60	0.32	10.016	6.644	-9.58		-0.87	0.000
83.59	30.747	2.596	39.60	0.32	10.031	6.647	-84.67		-0.87	0.000
83.85	30.765	3.245	39.58	0.32	10.033	6.653	-125.84		-0.87	0.000
84.13	30.774	3.882	39.58	0.32	10.031	6.657	-209.65		-0.87	0.000
84.40	30.799	4.507	39.55	0.32	10.029	6.660	-250.32		-0.87	0.000
84.68	30.823	5.132	39.53	0.32	10.034	6.665	-340.34		-0.87	0.000
84.95	30.854	5.745	39.50	0.32	10.034	6.671	-389.74		-0.87	0.000
85.23	30.874	6.346	39.48	0.32	10.034	6.674	-481.18		-0.87	0.000
85.50	30.908	6.935	39.44	0.32	10.033	6.678	-501.26		-0.87	0.000
85.77	30.945	7.500	39.41	0.32	10.040	6.680	-484.53		-0.87	0.000
86.04	30.969	8.029	39.38	0.32	10.050	6.683	-456.08		-0.87	0.000
86.32	31.010	8.546	39.34	0.32	10.081	6.692	-409.87		-0.87	0.000
86.59	31.054	9.050	39.30	0.32	10.103	6.701	-382.33		-0.87	0.000
86.87	31.100	9.531	39.25	0.32	10.140	6.730	-331.43		-0.87	0.000
87.14	31.132	9.976	39.22	0.32	10.161	6.764	-296.87		-0.87	0.000
87.41	31.185	10.397	39.17	0.32	10.192	6.806	-207.33		-0.87	0.000
87.69	31.237	10.793	39.11	0.32	10.238	6.854	-153.37		-0.87	0.000
87.96	31.292	11.154	39.06	0.32	10.287	6.903	-48.38		-0.87	0.000
88.23	31.330	11.490	39.02	0.32	10.338	6.956	-14.67		-0.87	0.000
88.51	31.387	11.791	38.96	0.32	10.383	7.011	-29.93		-0.87	0.000
88.78	31.449	12.067	38.90	0.32	10.444	7.069	-86.77		-0.87	0.000
89.06	31.488	12.308	38.86	0.32	10.494	7.129	-107.09		-0.87	0.000
89.33	31.550	12.524	38.80	0.32	10.568	7.161	-134.65		-0.87	0.000
89.60	31.613	12.692	38.74	0.32	10.597	7.227	-136.61		-0.87	0.000
89.88	31.677	12.837	38.67	0.32	10.681	7.299	-161.38		-0.87	0.000
90.16	31.721	12.945	38.63	0.32	10.765	7.382	-177.42		-0.87	0.000
90.43	31.785	13.017	38.57	0.32	10.855	7.474	-213.04		-0.87	0.000
90.71	31.850	13.053	38.50	0.31	10.967	7.577	-234.15		-0.87	0.000
90.98	31.915	13.053	38.43	0.31	11.087	7.696	-284.22		-0.87	0.000
91.26	31.959	13.029	38.39	0.31	11.218	7.824	-295.58		-0.87	0.000
91.53	32.024	12.957	38.33	0.31	11.378	7.969	-270.31		-0.87	0.000
91.80	32.090	12.861	38.26	0.31	11.581	8.131	-237.29		-0.87	0.000
92.07	32.131	12.716	38.22	0.31	11.785	8.317	-152.12		-0.87	0.000
92.35	32.195	12.548	38.16	0.31	11.883	8.413	-106.09		-0.87	0.000
92.63	32.255	12.356	38.09	0.31	12.098	8.616	-18.84		-0.87	0.000
92.89	32.318	12.115	38.03	0.31	12.308	8.830	28.50		-0.87	0.000
93.16	32.359	11.839	37.99	0.31	12.523	9.038	104.09		-0.87	0.000
93.43	32.415	11.550	37.93	0.31	12.728	9.249	125.38		-0.87	0.000
93.71	32.474	11.226	37.88	0.31	12.942	9.459	152.32		-0.87	0.000
93.98	32.510	10.865	37.84	0.31	13.139	9.662	168.63		-0.87	0.000
94.26	32.563	10.481	37.79	0.31	13.304	9.854	173.52		-0.87	0.000
94.52	32.615	10.072	37.73	0.31	13.489	10.035	151.47		-0.87	0.000
94.80	32.663	9.615	37.69	0.31	13.580	10.209	68.23		-0.87	0.000
95.07	32.695	9.159	37.66	0.31	13.732	10.295	21.44		-0.87	0.000
95.34	32.738	8.666	37.61	0.31	13.892	10.456	-74.40		-0.87	0.000
95.62	32.781	8.161	37.57	0.31	14.045	10.604	-129.92		-0.87	0.000
95.90	32.808	7.620	37.54	0.31	14.170	10.749	-258.16		-0.87	0.000
96.17	32.844	7.067	37.51	0.31	14.282	10.886	-325.66		-0.87	0.000
96.45	32.878	6.466	37.47	0.31	14.406	11.006	-417.49		-0.87	0.000
96.71	32.908	5.877	37.44	0.31	14.509	11.115	-444.33		-0.87	0.000
96.99	32.926	5.264	37.42	0.31	14.589	11.216	-460.27		-0.87	0.000
97.27	32.950	4.651	37.40	0.31	14.669	11.306	-460.56		-0.87	0.000
97.54	32.972	4.014	37.38	0.31	14.693	11.383	-442.55		-0.87	0.000
97.81	32.988	3.353	37.36	0.31	14.753	11.447	-434.96		-0.87	0.000
98.08	32.997	2.704	37.35	0.31	14.826	11.476	-428.70		-0.87	0.000
98.35	33.006	2.043	37.34	0.31	14.839	11.523	-416.15		-0.87	0.000
98.62	33.015	1.382	37.33	0.31	14.853	11.561	-341.23		-0.87	0.000
98.89	33.018	0.721	37.33	0.31	14.856	11.583	-286.05		-0.87	0.000
99.16	33.020	0.060	37.33	0.31	14.873	11.594	-165.53		-0.87	0.000
99.43	33.020	-0.589	37.33	0.31	14.863	11.596	-108.88		-0.87	0.000
99.70	33.020	-1.250	37.33	0.31	14.854	11.591	-20.91		-0.87	0.000
99.97	33.020	-1.923	37.33	0.31	14.845	11.577	-1.72		-0.87	0.000
100.24	33.019	-2.572	37.33	0.31	14.834	11.569	32.33		-0.87	0.000
100.51	33.005	-3.209	37.34	0.31	14.821	11.556	48.53		-0.87	0.000
100.78	32.988	-3.846	37.36	0.31	14.795	11.540	102.87		-0.87	0.000
101.06	32.967	-4.483	37.38	0.31	14.758	11.522	113.81		-0.87	0.000
101.33	32.941	-5.108	37.41	0.31	14.715	11.501	89.33		-0.87	0.000
101.60	32.926	-5.721	37.42	0.31	14.662	11.474	58.27		-0.87	0.000
101.88	32.894	-6.322	37.46	0.31	14.633	11.430	-16.52		-0.87	0.000
102.15	32.859	-6.899	37.49	0.31	14.590	11.370	-47.58		-0.87	0.000
102.43	32.823	-7.464	37.53	0.31	14.564	11.309	-102.89		-0.87	0.000
102.71	32.797	-8.017	37.55	0.31	14.540	11.267	-149.50		-0.87	0.000
102.99	32.756	-8.546	37.59	0.31	14.529	11.236	-167.16		-0.87	0.000
103.27	32.710	-9.050	37.64	0.31	14.480	11.212	-205.44		-0.87	0.000
103.54	32.665	-9.531	37.68	0.31	14.393	11.197	-220.68		-0.87	0.000
103.82	32.631	-9.988	37.72	0.31	14.295	11.133	-229.40		-0.87	0.000
104.10	32.581	-10.409	37.77	0.31	14.175	11.039	-214.42		-0.87	0.000
104.37	32.529	-10.805	37.82	0.31	14.047	10.921	-157.22		-0.87	0.000
104.65	32.474	-11.178	37.88	0.31	13.915	10.782	-122.59		-0.87	0.000
104.92	32.436	-11.514	37.91	0.31	13.781	10.632	-70.12		-0.87	0.000
105.19	32.377	-11.815	37.97	0.31	13.699	10.476	-51.59		-0.87	0.000
105.47	32.317	-12.091	38.03	0.31	13.555	10.313	-24.79		-0.87	0.000
105.74	32.277	-12.332	38.07	0.31	13.410	10.150	-7.30		-0.87	0.000
106.01	32.215	-12.536	38.13	0.31	13.256	9.989	26.38		-0.87	0.000
106.29	32.151	-12.704	38.20	0.31	13.100	9.824	44.94		-0.87	0.000
106.56	32.088	-12.849	38.26	0.31	12.929	9.742	82.57		-0.87	0.000
106.83	32.046	-12.957	38.30	0.31	12.769	9.570	104.98		-0.87	0.000
107.11	31.979	-13.017	38.37	0.31	12.614	9.394	144.88		-0.87	0.000
107.39	31.915	-13.053	38.43	0.31	12.442	9.223	159.45		-0.87	0.000
107.66	31.850	-13.053	38.50	0.31	12.281	9.052	168.28		-0.87	0.000
107.94	31.805	-13.029	38.54	0.32	12.198	8.879	156.46		-0.87	0.000
108.21	31.742	-12.957	38.61	0.32	12.029	8.707	122.46		-0.87	0.000
108.48	31.677	-12.849	38.67	0.32	11.857	8.540	112.89		-0.87	0.000
108.76	31.633	-12.716	38.72	0.32	11.648	8.365	120.06		-0.87	0.000
109.04	31.572	-12.548	38.78	0.32	11.442	8.173	154.85		-0.87	0.000
109.31	31.509	-12.332	38.84	0.32	11.234	7.975	171.83		-0.87	0.000
109.59	31.449	-12.091	38.90	0.32	11.044	7.786	191.83		-0.87	0.000
109.87	31.390	-11.815	38.96	0.32	10.896	7.692	196.71		-0.87	0.000
110.14	31.347	-11.502	39.00	0.32	10.742	7.522	201.27		-0.87	0.000
110.42	31.291	-11.178	39.06	0.32	10.595	7.378	197.09		-0.87	0.000
110.70	31.238	-10.805	39.11	0.32	10.482	7.242	205.80		-0.87	0.000
110.97	31.185	-10.409	39.17	0.32	10.432	7.121	213.52		-0.87	0.000
111.24	31.150	-9.988	39.20	0.32	10.317	7.017	233.25		-0.87	0.000
111.52	31.101	-9.543	39.25	0.32	10.229	6.924	233.21		-0.87	0.000
111.79	31.054	-9.062	39.30	0.32	10.146	6.836	217.68		-0.87	0.000
112.07	31.026	-8.570	39.32	0.32	10.067	6.757	202.28		-0.88	0.000
112.34	30.983	-8.041	39.37	0.32	9.997	6.683	163.25		-0.88	0.000
112.61	30.945	-7.500	39.41	0.32	9.940	6.619	139.49		-0.88	0.000
112.88	30.912	-6.947	39.44	0.32	9.896	6.591	58.52		-0.88	0.000
113.15	30.889	-6.370	39.46	0.32	9.855	6.537	0.91		-0.88	0.000
113.43	30.858	-5.769	39.49	0.32	9.835	6.495	-108.10		-0.88	0.000
113.71	30.832	-5.168	39.52	0.32	9.801	6.456	-142.19		-0.88	0.000
113.98	30.814	-4.543	39.54	0.32	9.778	6.423	-172.55		-0.88	0.000
114.26	30.795	-3.894	39.56	0.32	9.764	6.399	-177.52		-0.88	0.000
114.54	30.778	-3.245	39.57	0.32	9.741	6.381	-191.45		-0.88	0.000
114.80	30.767	-2.572	39.58	0.32	9.736	6.367	-205.43		-0.88	0.000
115.08	30.758	-1.899	39.59	0.32	9.722	6.357	-226.81		-0.88	0.000
115.35	30.749	-1.250	39.60	0.32	9.739	6.350	-235.78		-0.88	0.000
115.62	30.747	-0.589	39.60	0.32	9.739	6.347	-226.95		-0.88	0.000
115.88	30.747	0.072	39.60	0.32	9.733	6.347	-196.77		-0.88	0.000
116.15	30.747	0.745	39.60	0.32	9.746	6.351	-101.01		-0.88	0.000
116.42	30.747	1.382	39.60	0.32	9.742	6.355	-42.30		-0.88	0.000
116.68	30.747	2.055	39.60	0.32	9.747	6.363	41.21		-0.88	0.000
116.94	30.749	2.692	39.60	0.32	9.748	6.369	68.38		-0.88	0.000
117.21	30.767	3.317	39.58	0.32	9.754	6.376	78.27		-0.88	0.000
117.48	30.781	3.942	39.57	0.32	9.756	6.381	77.83		-0.88	0.000
117.75	30.803	4.567	39.55	0.32	9.751	6.382	77.28		-0.88	0.000
118.02	30.827	5.180	39.52	0.32	9.752	6.383	67.53		-0.88	0.000
118.29	30.847	5.793	39.50	0.32	9.756	6.386	37.06		-0.88	0.000
118.56	30.877	6.382	39.47	0.32	9.758	6.388	12.59		-0.88	0.000
118.83	30.910	6.935	39.44	0.32	9.760	6.390	-46.03		-0.88	0.000
119.10	30.936	7.488	39.41	0.32	9.766	6.391	-70.04		-0.88	0.000
119.37	30.974	8.029	39.38	0.32	9.773	6.395	-106.50		-0.88	0.000
119.65	31.015	8.546	39.33	0.32	9.781	6.400	-117.33		-0.88	0.000
119.92	31.060	9.050	39.29	0.32	9.799	6.408	-121.86		-0.88	0.000
120.20	31.092	9.519	39.26	0.32	9.823	6.433	-120.52		-0.88	0.000
120.47	31.140	9.964	39.21	0.32	9.863	6.461	-146.63		-0.88	0.000
120.74	31.191	10.397	39.16	0.32	9.902	6.503	-160.57		-0.88	0.000
121.01	31.226	10.781	39.12	0.32	9.939	6.544	-159.06		-0.88	0.000
121.28	31.280	11.154	39.07	0.32	9.991	6.591	-152.33		-0.88	0.000
121.56	31.336	11.478	39.01	0.32	10.024	6.643	-127.18		-0.88	0.000
121.83	31.396	11.779	38.95	0.32	10.082	6.694	-124.25		-0.88	0.000
122.11	31.435	12.055	38.92	0.32	10.119	6.748	-129.68		-0.88	0.000
122.38	31.496	12.296	38.85	0.32	10.142	6.804	-133.32		-0.88	0.000
122.66	31.559	12.512	38.79	0.32	10.203	6.832	-159.08		-0.88	0.000
122.93	31.621	12.692	38.73	0.32	10.254	6.887	-179.14		-0.88	0.000
123.20	31.663	12.837	38.69	0.32	10.314	6.952	-177.85		-0.88	0.000
123.48	31.728	12.945	38.62	0.32	10.385	7.021	-169.21		-0.88	0.000
123.76	31.792	13.017	38.56	0.32	10.466	7.097	-140.51		-0.88	0.000
124.02	31.837	13.053	38.51	0.31	10.549	7.182	-132.07		-0.88	0.000
124.30	31.903	13.053	38.45	0.31	10.646	7.278	-122.04		-0.88	0.000
124.58	31.968	13.029	38.38	0.31	10.797	7.387	-120.38		-0.88	0.000
124.85	32.032	12.957	38.32	0.31	10.870	7.511	-124.69		-0.88	0.000
125.12	32.074	12.861	38.28	0.31	11.042	7.667	-141.47		-0.88	0.000
125.40	32.138	12.728	38.21	0.31	11.232	7.839	-179.64		-0.88	0.000
125.68	32.201	12.560	38.15	0.31	11.432	8.027	-227.49		-0.88	0.000
125.95	32.263	12.356	38.09	0.31	11.631	8.125	-240.37		-0.88	0.000
126.22	32.304	12.115	38.05	0.31	11.835	8.329	-228.40		-0.88	0.000
126.49	32.365	11.851	37.98	0.31	12.058	8.537	-209.64		-0.88	0.000
126.77	32.423	11.563	37.93	0.31	12.253	8.744	-160.01		-0.88	0.000
127.04	32.460	11.226	37.89	0.31	12.464	8.956	-132.68		-0.88	0.000
127.32	32.517	10.865	37.83	0.31	12.655	9.160	-124.04		-0.88	0.000
127.60	32.570	10.481	37.78	0.31	12.758	9.359	-130.43		-0.88	0.000
127.87	32.620	10.060	37.73	0.31	12.936	9.547	-144.53		-0.88	0.000
128.14	32.654	9.615	37.70	0.31	13.120	9.731	-157.58		-0.88	0.000
128.42	32.700	9.135	37.65	0.31	13.295	9.906	-175.87		-0.88	0.000
128.69	32.745	8.642	37.61	0.31	13.455	9.992	-186.83		-0.88	0.000
128.96	32.786	8.125	37.56	0.31	13.602	10.154	-225.13		-0.88	0.000
129.24	32.813	7.596	37.54	0.31	13.744	10.308	-244.64		-0.88	0.000
129.51	32.849	7.031	37.50	0.31	13.873	10.454	-282.89		-0.88	0.000
129.79	32.883	6.454	37.47	0.31	14.001	10.589	-313.93		-0.88	0.000
130.06	32.914	5.853	37.44	0.31	14.106	10.709	-360.37		-0.88	0.000
130.34	32.931	5.240	37.42	0.31	14.193	10.823	-375.58		-0.88	0.000
130.61	32.955	4.615	37.39	0.31	14.253	10.922	-394.69		-0.88	0.000
130.88	32.977	3.978	37.37	0.31	14.323	11.012	-405.16		-0.88	0.000
131.16	32.987	3.329	37.36	0.31	14.374	11.087	-418.34		-0.88	0.000
131.43	33.001	2.680	37.35	0.31	14.443	11.148	-406.78		-0.88	0.000
131.70	33.013	2.019	37.34	0.31	14.484	11.179	-350.24		-0.88	0.000
131.97	33.019	1.358	37.33	0.31	14.508	11.220	-332.88		-0.88	0.000
132.24	33.022	0.697	37.33	0.31	14.508	11.253	-317.80		-0.88	0.000
132.51	33.023	0.024	37.33	0.31	14.522	11.273	-319.55		-0.88	0.000
132.78	33.023	-0.637	37.33	0.31	14.518	11.280	-290.90		-0.88	0.000
133.06	33.023	-1.298	37.33	0.31	14.511	11.280	-268.69		-0.88	0.000
133.33	33.023	-1.959	37.33	0.31	14.514	11.276	-225.26		-0.88	0.000
133.60	33.022	-2.620	37.33	0.31	14.514	11.266	-209.66		-0.88	0.000
133.88	33.005	-3.281	37.34	0.31	14.499	11.255	-193.69		-0.88	0.000
134.16	32.991	-3.918	37.36	0.31	14.484	11.246	-198.74		-0.88	0.000
134.44	32.969	-4.567	37.38	0.31	14.447	11.231	-237.34		-0.88	0.000
134.72	32.942	-5.204	37.41	0.31	14.408	11.222	-272.25		-0.88	0.000
135.00	32.914	-5.841	37.44	0.31	14.363	11.200	-276.11		-0.88	0.000
135.27	32.896	-6.442	37.45	0.31	14.301	11.162	-274.06		-0.88	0.000
135.55	32.862	-7.031	37.49	0.31	14.276	11.103	-275.97		-0.88	0.000
135.83	32.823	-7.584	37.53	0.31	14.257	11.046	-273.31		-0.88	0.000
136.11	32.785	-8.149	37.57	0.31	14.253	11.005	-261.95		-0.88	0.000
136.39	32.756	-8.666	37.59	0.31	14.235	10.976	-208.45		-0.88	0.000
136.66	32.710	-9.171	37.64	0.31	14.189	10.952	-173.50		-0.88	0.000
136.94	32.663	-9.639	37.69	0.31	14.100	10.909	-98.87		-0.88	0.000
137.22	32.614	-10.084	37.74	0.31	13.996	10.828	-58.38		-0.88	0.000
137.49	32.579	-10.505	37.77	0.31	13.871	10.724	28.84		-0.88	0.000
137.76	32.526	-10.901	37.82	0.31	13.743	10.590	67.64		-0.88	0.000
138.04	32.472	-11.250	37.88	0.31	13.611	10.441	108.06		-0.88	0.000
138.31	32.414	-11.575	37.94	0.31	13.458	10.365	96.72		-0.88	0.000
138.59	32.376	-11.875	37.97	0.31	13.318	10.208	39.02		-0.88	0.000
138.86	32.315	-12.139	38.03	0.31	13.170	10.044	8.61		-0.88	0.000
139.13	32.254	-12.380	38.10	0.31	13.093	9.878	-40.44		-0.88	0.000
139.41	32.191	-12.572	38.16	0.31	12.939	9.710	-56.67		-0.88	0.000
139.69	32.149	-12.740	38.20	0.31	12.769	9.544	-81.88		-0.88	0.000
139.97	32.086	-12.873	38.26	0.31	12.607	9.373	-126.60		-0.88	0.000
140.25	32.021	-12.969	38.33	0.31	12.448	9.197	-158.47		-0.88	0.000
140.52	31.956	-13.029	38.39	0.31	12.285	9.018	-237.56		-0.88	0.000
140.80	31.913	-13.065	38.44	0.31	12.112	8.847	-273.24		-0.88	0.000
141.08	31.846	-13.053	38.50	0.31	11.953	8.676	-279.83		-0.88	0.000
141.35	31.781	-13.005	38.57	0.32	11.801	8.502	-259.60		-0.88	0.000
141.63	31.717	-12.921	38.63	0.32	11.640	8.332	-207.37		-0.88	0.000
141.91	31.673	-12.812	38.68	0.32	11.421	8.166	-179.00		-0.88	0.000
142.18	31.610	-12.656	38.74	0.32	11.219	8.079	-132.25		-0.88	0.000
142.46	31.547	-12.476	38.80	0.32	11.121	7.889	-109.37		-0.88	0.000
142.74	31.486	-12.260	38.86	0.32	10.913	7.695	-85.33		-0.88	0.000
143.02	31.446	-12.007	38.90	0.32	10.740	7.507	-82.06		-0.88	0.000
143.30	31.385	-11.719	38.97	0.32	10.605	7.333	-74.79		-0.88	0.000
143.57	31.328	-11.394	39.02	0.32	10.472	7.185	-61.46		-0.88	0.000
143.85	31.272	-11.058	39.08	0.32	10.330	7.055	-41.94		-0.88	0.000
144.12	31.236	-10.673	39.11	0.32	10.218	6.938	-55.92		-0.88	0.000
144.40	31.185	-10.276	39.17	0.32	10.131	6.832	-70.10		-0.88	0.000
144.67	31.133	-9.832	39.22	0.32	10.031	6.733	-103.41		-0.88	0.000
144.95	31.086	-9.387	39.26	0.32	9.949	6.646	-114.21		-0.88	0.000
145.22	31.055	-8.894	39.29	0.32	9.879	6.566	-130.06		-0.88	0.000
145.50	31.013	-8.389	39.34	0.32	9.841	6.494	-117.95		-0.88	0.000
145.77	30.972	-7.861	39.38	0.32	9.784	6.459	-63.10		-0.88	0.000
146.05	30.933	-7.308	39.42	0.32	9.734	6.395	-23.51		-0.88	0.000
146.31	30.910	-6.743	39.44	0.32	9.701	6.341	24.16		-0.88	0.000
146.58	30.880	-6.154	39.47	0.32	9.660	6.289	25.64		-0.88	0.000
146.85	30.851	-5.565	39.50	0.32	9.616	6.254	2.85		-0.88	0.000
147.12	30.833	-4.952	39.52	0.32	9.594	6.223	1.83		-0.88	0.000
147.39	30.810	-4.339	39.54	0.32	9.584	6.196	-8.26		-0.88	0.000
147.67	30.795	-3.702	39.56	0.32	9.574	6.176	-19.74		-0.88	0.000
147.94	30.782	-3.053	39.57	0.32	9.564	6.158	-65.04		-0.88	0.000
148.21	30.767	-2.392	39.58	0.32	9.547	6.154	-98.26		-0.88	0.000
148.48	30.756	-1.743	39.59	0.32	9.552	6.142	-150.96		-0.88	0.000
148.75	30.755	-1.082	39.59	0.32	9.553	6.137	-181.97		-0.88	0.000
149.02	30.751	-0.421	39.60	0.32	9.547	6.135	-244.09		-0.88	0.000
149.29	30.751	0.228	39.60	0.32	9.555	6.136	-258.72		-0.88	0.000
149.56	30.751	0.901	39.60	0.32	9.575	6.141	-244.03		-0.88	0.000
149.83	30.751	1.563	39.60	0.32	9.556	6.148	-212.57		-0.88	0.000
150.09	30.751	2.224	39.60	0.32	9.572	6.154	-149.31		-0.88	0.000
150.37	30.759	2.873	39.59	0.32	9.578	6.157	-123.87		-0.88	0.000
150.64	30.773	3.510	39.58	0.32	9.575	6.160	-101.28		-0.88	0.000
150.91	30.794	4.147	39.56	0.32	9.573	6.164	-81.32		-0.88	0.000
151.18	30.815	4.784	39.53	0.32	9.573	6.167	-33.88		-0.88	0.000
151.44	30.833	5.397	39.52	0.32	9.580	6.168	-12.20		-0.88	0.000
151.71	30.863	5.986	39.49	0.32	9.580	6.171	44.61		-0.88	0.000
151.98	30.894	6.562	39.46	0.32	9.583	6.174	63.91		-0.88	0.000
152.25	30.915	7.127	39.43	0.32	9.587	6.176	74.14		-0.88	0.000
152.52	30.954	7.668	39.40	0.32	9.585	6.177	69.84		-0.88	0.000
152.79	30.994	8.209	39.36	0.32	9.589	6.180	45.37		-0.88	0.000
153.06	31.021	8.714	39.33	0.32	9.613	6.184	-21.81		-0.88	0.000
153.34	31.065	9.195	39.28	0.32	9.633	6.203	-47.41		-0.88	0.000
153.61	31.114	9.651	39.24	0.32	9.659	6.225	-88.39		-0.88	0.000
153.88	31.164	10.096	39.19	0.32	9.693	6.257	-108.46		-0.88	0.000
154.16	31.199	10.517	39.15	0.32	9.717	6.296	-164.40		-0.88	0.000
154.43	31.251	10.901	39.10	0.32	9.752	6.339	-190.29		-0.88	0.000
154.70	31.306	11.250	39.04	0.32	9.803	6.387	-219.92		-0.88	0.000
154.98	31.344	11.575	39.01	0.32	9.840	6.407	-211.91		-0.88	0.000
155.25	31.404	11.875	38.95	0.32	9.881	6.457	-197.48		-0.88	0.000
155.52	31.464	12.139	38.89	0.32	9.926	6.507	-144.28		-0.88	0.000
155.79	31.526	12.368	38.82	0.32	9.967	6.559	-111.06		-0.88	0.000
156.07	31.567	12.572	38.78	0.32	10.024	6.612	-45.93		-0.88	0.000
156.34	31.628	12.740	38.72	0.32	10.076	6.667	-19.59		-0.88	0.000
156.61	31.694	12.873	38.66	0.32	10.110	6.728	22.31		-0.88	0.000
156.88	31.736	12.969	38.61	0.32	10.166	6.796	32.05		-0.88	0.000
157.15	31.801	13.029	38.55	0.32	10.238	6.869	51.95		-0.88	0.000
157.42	31.867	13.065	38.48	0.31	10.323	6.952	53.77		-0.88	0.000
157.69	31.910	13.053	38.44	0.31	10.420	6.997	33.49		-0.88	0.000
157.97	31.976	13.017	38.37	0.31	10.558	7.092	12.49		-0.88	0.000
158.24	32.041	12.945	38.31	0.31	10.713	7.207	-50.90		-0.88	0.000
158.51	32.105	12.837	38.24	0.31	10.876	7.347	-91.80		-0.88	0.000
158.79	32.147	12.692	38.20	0.31	10.967	7.507	-175.63		-0.88	0.000
159.06	32.212	12.524	38.14	0.31	11.163	7.682	-214.02		-0.88	0.000
159.34	32.273	12.308	38.08	0.31	11.366	7.876	-276.88		-0.88	0.000
159.61	32.333	12.067	38.02	0.31	11.557	8.075	-297.69		-0.88	0.000
159.88	32.372	11.791	37.98	0.31	11.757	8.280	-308.88		-0.88	0.000
160.16	32.432	11.490	37.92	0.31	11.973	8.485	-317.72		-0.88	0.000
160.43	32.487	11.154	37.86	0.31	12.173	8.588	-359.50		-0.88	0.000
160.71	32.524	10.793	37.83	0.31	12.373	8.795	-385.09		-0.88	0.000
160.98	32.577	10.397	37.77	0.31	12.552	8.995	-427.59		-0.88	0.000
161.26	32.627	9.964	37.72	0.31	12.734	9.186	-436.61		-0.88	0.000
161.53	32.677	9.519	37.67	0.31	12.826	9.366	-450.23		-0.88	0.000
161.80	32.706	9.050	37.64	0.31	13.002	9.547	-455.85		-0.88	0.000
162.08	32.751	8.546	37.60	0.31	13.173	9.721	-466.75		-0.88	0.000
162.35	32.792	8.041	37.56	0.31	13.329	9.886	-477.00		-0.88	0.000
162.63	32.829	7.488	37.52	0.31	13.477	10.044	-509.09		-0.88	0.000
162.91	32.855	6.923	37.49	0.31	13.608	10.192	-518.18		-0.88	0.000
163.18	32.887	6.334	37.46	0.31	13.723	10.324	-481.80		-0.88	0.000
163.45	32.918	5.721	37.43	0.31	13.835	10.447	-439.73		-0.88	0.000
163.73	32.945	5.108	37.41	0.31	13.939	10.503	-335.66		-0.88	0.000
164.01	32.962	4.483	37.39	0.31	14.020	10.607	-284.66		-0.88	0.000
164.28	32.979	3.834	37.37	0.31	14.089	10.701	-212.62		-0.88	0.000
164.55	32.997	3.185	37.35	0.31	14.135	10.778	-181.18		-0.88	0.000
164.83	33.006	2.524	37.34	0.31	14.188	10.848	-127.15		-0.88	0.000
165.10	33.017	1.863	37.33	0.31	14.210	10.903	-45.74		-0.88	0.000
165.37	33.026	1.190	37.32	0.31	14.239	10.947	-3.54		-0.88	0.000
165.64	33.027	0.517	37.32	0.31	14.273	10.976	30.33		-0.88	0.000
165.90	33.027	-0.132	37.32	0.31	14.274	10.997	55.53		-0.88	0.000
166.17	33.027	-0.781	37.32	0.31	14.275	11.000	55.04		-0.88	0.000
166.43	33.027	-1.430	37.32	0.31	14.274	11.002	40.78		-0.88	0.000
166.70	33.027	-2.079	37.32	0.31	14.272	11.000	33.35		-0.88	0.000
166.97	33.020	-2.728	37.33	0.31	14.270	10.994	18.19		-0.88	0.000
167.25	33.004	-3.365	37.35	0.31	14.256	10.984	25.20		-0.88	0.000
167.52	32.992	-4.014	37.36	0.31	14.237	10.977	30.02		-0.88	0.000
167.79	32.969	-4.639	37.38	0.31	14.201	10.964	21.72		-0.88	0.000
168.07	32.944	-5.264	37.41	0.31	14.177	10.946	-43.77		-0.88	0.000
168.34	32.926	-5.877	37.42	0.31	14.115	10.919	-90.92		-0.88	0.000
168.62	32.894	-6.466	37.46	0.31	14.058	10.897	-176.35		-0.88	0.000
168.89	32.859	-7.043	37.49	0.31	14.071	10.836	-210.71		-0.88	0.000
169.17	32.823	-7.608	37.53	0.31	14.039	10.784	-276.89		-0.88	0.000
169.44	32.797	-8.149	37.55	0.31	14.021	10.750	-299.51		-0.88	0.000
169.72	32.754	-8.666	37.60	0.31	14.003	10.723	-334.57		-0.88	0.000
170.00	32.709	-9.159	37.64	0.31	13.937	10.697	-341.99		-0.88	0.000
170.28	32.663	-9.651	37.69	0.31	13.834	10.653	-342.43		-0.88	0.000
170.56	32.612	-10.096	37.74	0.31	13.736	10.565	-313.56		-0.88	0.000
170.84	32.579	-10.517	37.77	0.31	13.625	10.456	-296.05		-0.88	0.000
171.12	32.524	-10.913	37.83	0.31	13.481	10.320	-265.43		-0.88	0.000
171.39	32.468	-11.274	37.88	0.31	13.342	10.171	-257.82		-0.88	0.000
171.67	32.413	-11.599	37.94	0.31	13.191	10.013	-260.26		-0.88	0.000
171.95	32.373	-11.899	37.98	0.31	13.050	9.850	-272.99		-0.88	0.000
172.22	32.313	-12.163	38.04	0.31	12.893	9.681	-312.54		-0.88	0.000
172.50	32.250	-12.404	38.10	0.31	12.819	9.515	-316.53		-0.88	0.000
172.78	32.190	-12.596	38.16	0.31	12.666	9.432	-297.26		-0.88	0.000
173.06	32.147	-12.752	38.20	0.31	12.494	9.261	-284.79		-0.88	0.000
173.33	32.082	-12.885	38.27	0.31	12.329	9.091	-246.71		-0.88	0.000
173.61	32.018	-12.981	38.33	0.31	12.156	8.915	-193.21		-0.88	0.000
173.89	31.953	-13.041	38.40	0.31	12.013	8.736	-157.11		-0.88	0.000
174.17	31.909	-13.065	38.44	0.31	11.844	8.562	-75.59		-0.88	0.000
174.44	31.844	-13.053	38.51	0.31	11.682	8.391	-30.05		-0.88	0.000
174.71	31.778	-13.005	38.57	0.32	11.528	8.218	36.32		-0.88	0.000
174.99	31.715	-12.921	38.63	0.32	11.369	8.052	62.55		-0.88	0.000
175.26	31.672	-12.800	38.68	0.32	11.155	7.890	53.25		-0.88	0.000
175.53	31.608	-12.644	38.74	0.32	11.053	7.714	32.99		-0.88	0.000
175.81	31.545	-12.464	38.81	0.32	10.860	7.521	-28.21		-0.88	0.000
176.08	31.505	-12.248	38.84	0.32	10.667	7.425	-68.93		-0.88	0.000
176.36	31.444	-11.995	38.91	0.32	10.505	7.247	-158.10		-0.88	0.000
176.63	31.383	-11.719	38.97	0.32	10.381	7.084	-205.02		-0.88	0.000
176.92	31.327	-11.394	39.02	0.32	10.240	6.942	-262.01		-0.88	0.000
177.20	31.271	-11.046	39.08	0.32	10.117	6.819	-273.24		-0.88	0.000
177.48	31.233	-10.661	39.12	0.32	10.013	6.704	-272.32		-0.88	0.000
177.75	31.181	-10.240	39.17	0.32	9.918	6.600	-249.62		-0.88	0.000
178.03	31.131	-9.808	39.22	0.32	9.826	6.508	-181.31		-0.88	0.000
178.30	31.085	-9.351	39.27	0.32	9.757	6.418	-140.13		-0.88	0.000
178.57	31.053	-8.858	39.30	0.32	9.722	6.344	-107.49		-0.88	0.000
178.85	31.012	-8.353	39.34	0.32	9.658	6.272	-100.26		-0.88	0.000
179.12	30.969	-7.825	39.38	0.32	9.607	6.209	-102.34		-0.88	0.000
179.40	30.946	-7.272	39.40	0.32	9.553	6.156	-110.87		-0.88	0.000
179.67	30.910	-6.695	39.44	0.32	9.515	6.127	-122.40		-0.88	0.000
179.94	30.880	-6.118	39.47	0.32	9.486	6.085	-174.93		-0.88	0.000
180.22	30.850	-5.517	39.50	0.32	9.455	6.046	-204.47		-0.88	0.000
180.49	30.833	-4.904	39.52	0.32	9.434	6.014	-279.72		-0.88	0.000
180.76	30.810	-4.267	39.54	0.32	9.413	5.990	-321.51		-0.88	0.000
181.04	30.794	-3.618	39.56	0.32	9.411	5.968	-406.38		-0.88	0.000
181.32	30.777	-2.969	39.57	0.32	9.398	5.955	-438.28		-0.88	0.000
181.59	30.768	-2.296	39.58	0.32	9.394	5.945	-478.35		-0.88	0.000
181.86	30.763	-1.623	39.59	0.32	9.398	5.938	-487.05		-0.88	0.000
182.14	30.754	-0.950	39.60	0.32	9.381	5.935	-474.38		-0.88	0.000
182.40	30.753	-0.288	39.60	0.32	9.398	5.933	-461.94		-0.88	0.000
182.67	30.753	0.373	39.60	0.32	9.407	5.934	-418.89		-0.88	0.000
182.94	30.753	1.034	39.60	0.32	9.408	5.939	-394.59		-0.88	0.000
183.21	30.753	1.695	39.60	0.32	9.414	5.945	-317.56		-0.88	0.000
183.48	30.753	2.344	39.60	0.32	9.413	5.950	-270.76		-0.88	0.000
183.75	30.768	2.993	39.58	0.32	9.415	5.955	-177.12		-0.88	0.000
184.02	30.783	3.630	39.57	0.32	9.420	5.960	-132.65		-0.88	0.000
184.29	30.797	4.267	39.55	0.32	9.418	5.963	-41.92		-0.88	0.000
184.57	30.822	4.892	39.53	0.32	9.424	5.966	7.17		-0.88	0.000
184.84	30.846	5.505	39.50	0.32	9.421	5.967	101.72		-0.88	0.000
185.10	30.867	6.106	39.48	0.32	9.431	5.968	141.90		-0.88	0.000
185.38	30.900	6.695	39.45	0.32	9.431	5.972	171.52		-0.88	0.000
185.65	30.933	7.248	39.42	0.32	9.433	5.975	170.59		-0.88	0.000
185.92	30.959	7.800	39.39	0.32	9.435	5.978	135.85		-0.88	0.000
186.19	31.001	8.329	39.35	0.32	9.446	5.980	101.23		-0.88	0.000
186.46	31.044	8.834	39.31	0.32	9.457	5.988	2.29		-0.88	0.000
186.73	31.072	9.315	39.28	0.32	9.472	6.009	-55.32		-0.88	0.000
187.01	31.121	9.772	39.23	0.32	9.519	6.036	-175.56		-0.88	0.000
187.28	31.172	10.192	39.18	0.32	9.552	6.053	-223.78		-0.88	0.000
187.55	31.222	10.601	39.13	0.32	9.582	6.093	-299.99		-0.88	0.000
187.83	31.258	10.986	39.09	0.32	9.633	6.133	-326.61		-0.88	0.000
188.10	31.313	11.334	39.04	0.32	9.649	6.177	-370.19		-0.88	0.000
188.37	31.372	11.647	38.98	0.32	9.683	6.223	-375.21		-0.88	0.000
188.64	31.410	11.935	38.94	0.32	9.725	6.271	-362.15		-0.88	0.000
188.92	31.471	12.200	38.88	0.32	9.779	6.319	-338.41		-0.88	0.000
189.19	31.532	12.416	38.82	0.32	9.806	6.368	-256.32		-0.88	0.000
189.46	31.594	12.608	38.76	0.32	9.851	6.417	-198.57		-0.88	0.000
189.74	31.636	12.764	38.71	0.32	9.924	6.476	-65.47		-0.88	0.000
190.01	31.703	12.897	38.65	0.32	9.976	6.506	4.58		-0.88	0.000
190.28	31.765	12.981	38.58	0.32	10.026	6.572	89.42		-0.88	0.000
190.55	31.809	13.041	38.54	0.32	10.077	6.639	98.12		-0.88	0.000
190.82	31.874	13.065	38.48	0.31	10.146	6.711	85.39		-0.88	0.000
191.09	31.940	13.053	38.41	0.31	10.243	6.797	74.91		-0.88	0.000
191.36	32.005	13.005	38.34	0.31	10.375	6.892	34.58		-0.88	0.000
191.63	32.047	12.921	38.30	0.31	10.509	7.012	13.02		-0.88	0.000
191.91	32.112	12.812	38.24	0.31	10.670	7.149	-47.38		-0.88	0.000
192.18	32.174	12.656	38.18	0.31	10.856	7.306	-81.00		-0.88	0.000
192.46	32.218	12.476	38.13	0.31	11.046	7.392	-168.78		-0.88	0.000
192.73	32.279	12.260	38.07	0.31	11.222	7.573	-219.71		-0.88	0.000
193.01	32.341	12.007	38.01	0.31	11.330	7.765	-295.95		-0.88	0.000
193.28	32.399	11.731	37.95	0.31	11.526	7.963	-311.27		-0.88	0.000
193.56	32.438	11.418	37.91	0.31	11.729	8.168	-284.95		-0.88	0.000
193.83	32.494	11.070	37.86	0.31	11.927	8.373	-254.30		-0.88	0.000
194.11	32.550	10.697	37.80	0.31	12.121	8.572	-160.71		-0.88	0.000
194.38	32.603	10.288	37.75	0.31	12.308	8.767	-108.17		-0.88	0.000
194.66	32.636	9.856	37.71	0.31	12.501	8.956	-55.67		-0.88	0.000
194.93	32.683	9.399	37.67	0.31	12.674	9.142	-49.58		-0.88	0.000
195.21	32.728	8.918	37.62	0.31	12.839	9.324	-64.32		-0.88	0.000
195.48	32.772	8.413	37.58	0.31	13.005	9.493	-68.41		-0.88	0.000
195.76	32.800	7.885	37.55	0.31	13.083	9.574	-81.26		-0.88	0.000
196.03	32.836	7.332	37.51	0.31	13.223	9.737	-95.67		-0.88	0.000
196.31	32.872	6.767	37.48	0.31	13.356	9.883	-154.68		-0.88	0.000
196.58	32.892	6.190	37.46	0.31	13.480	10.021	-233.44		-0.88	0.000
196.85	32.923	5.577	37.43	0.31	13.593	10.148	-266.45		-0.88	0.000
197.13	32.947	4.964	37.40	0.31	13.697	10.260	-305.91		-0.88	0.000
197.40	32.972	4.339	37.38	0.31	13.783	10.362	-294.32		-0.88	0.000
197.68	32.982	3.678	37.37	0.31	13.844	10.452	-230.88		-0.88	0.000
197.95	33.000	3.029	37.35	0.31	13.914	10.526	-198.02		-0.88	0.000
198.22	33.011	2.368	37.34	0.31	13.972	10.592	-142.19		-0.88	0.000
198.49	33.018	1.695	37.33	0.31	13.970	10.622	-116.30		-0.88	0.000
198.76	33.023	1.046	37.33	0.31	14.009	10.665	-69.34		-0.88	0.000
199.04	33.026	0.385	37.32	0.31	14.029	10.701	-53.28		-0.88	0.000
199.31	33.027	-0.276	37.32	0.31	14.036	10.719	-42.79		-0.88	0.000
199.57	33.027	-0.950	37.32	0.31	14.031	10.727	-41.31		-0.88	0.000
199.84	33.027	-1.611	37.32	0.31	14.032	10.729	-53.60		-0.88	0.000
200.11	33.027	-2.260	37.32	0.31	14.028	10.725	-72.26		-0.88	0.000
200.39	33.020	-2.909	37.33	0.31	14.029	10.722	-121.66		-0.88	0.000
200.67	33.003	-3.558	37.35	0.31	14.012	10.713	-155.13		-0.88	0.000
200.95	32.982	-4.207	37.37	0.31	13.997	10.705	-177.25		-0.88	0.000
201.22	32.959	-4.856	37.39	0.31	13.962	10.697	-172.66		-0.88	0.000
201.51	32.941	-5.481	37.41	0.31	13.926	10.678	-146.29		-0.88	0.000
201.78	32.913	-6.094	37.44	0.31	13.868	10.654	-129.21		-0.88	0.000
202.06	32.881	-6.707	37.47	0.31	13.826	10.604	-69.62		-0.88	0.000
202.34	32.845	-7.272	37.51	0.31	13.806	10.545	-30.60		-0.88	0.000
202.61	32.820	-7.825	37.53	0.31	13.784	10.498	28.56		-0.88	0.000
202.88	32.779	-8.365	37.57	0.31	13.771	10.468	48.83		-0.88	0.000
203.15	32.736	-8.870	37.61	0.31	13.725	10.443	49.07		-0.88	0.000
203.43	32.688	-9.351	37.66	0.31	13.640	10.412	30.36		-0.88	0.000
203.70	32.656	-9.808	37.69	0.31	13.583	10.346	-20.80		-0.88	0.000
203.98	32.608	-10.240	37.74	0.31	13.483	10.245	-57.50		-0.88	0.000
204.25	32.555	-10.637	37.79	0.31	13.353	10.122	-136.74		-0.88	0.000
204.53	32.500	-11.022	37.85	0.31	13.220	10.050	-170.47		-0.88	0.000
204.81	32.463	-11.370	37.89	0.31	13.079	9.899	-219.56		-0.88	0.000
205.08	32.405	-11.683	37.94	0.31	12.922	9.739	-274.64		-0.88	0.000
205.36	32.346	-11.983	38.00	0.31	12.777	9.573	-305.40		-0.88	0.000
205.64	32.285	-12.236	38.07	0.31	12.631	9.402	-360.85		-0.88	0.000
205.92	32.245	-12.452	38.11	0.31	12.475	9.234	-367.04		-0.88	0.000
206.20	32.182	-12.644	38.17	0.31	12.307	9.067	-353.87		-0.88	0.000
206.47	32.118	-12.800	38.23	0.31	12.143	8.891	-335.39		-0.88	0.000
206.75	32.054	-12.921	38.30	0.31	11.979	8.717	-296.99		-0.88	0.000
207.02	32.010	-13.005	38.34	0.31	11.898	8.537	-275.38		-0.88	0.000
207.30	31.946	-13.053	38.40	0.31	11.742	8.363	-234.53		-0.88	0.000
207.58	31.881	-13.065	38.47	0.31	11.576	8.192	-217.49		-0.88	0.000
207.86	31.815	-13.041	38.53	0.32	11.424	8.021	-176.05		-0.88	0.000
208.13	31.773	-12.981	38.58	0.32	11.273	7.855	-168.75		-0.88	0.000
208.41	31.708	-12.885	38.64	0.32	11.109	7.772	-164.76		-0.88	0.000
208.68	31.644	-12.752	38.71	0.32	10.899	7.614	-179.02		-0.88	0.000
208.96	31.580	-12.596	38.77	0.32	10.707	7.445	-202.12		-0.88	0.000
209.24	31.537	-12.392	38.81	0.32	10.521	7.262	-193.02		-0.88	0.000
209.52	31.477	-12.163	38.87	0.32	10.353	7.085	-172.47		-0.88	0.000
209.80	31.417	-11.887	38.93	0.32	10.215	6.920	-125.37		-0.88	0.000
210.07	31.359	-11.599	38.99	0.32	10.088	6.773	-114.33		-0.88	0.000
210.35	31.321	-11.262	39.03	0.32	9.955	6.646	-123.53		-0.88	0.000
210.63	31.265	-10.901	39.08	0.32	9.906	6.530	-145.27		-0.88	0.000
210.90	31.210	-10.517	39.14	0.32	9.809	6.422	-194.75		-0.88	0.000
211.17	31.159	-10.096	39.19	0.32	9.712	6.329	-209.72		-0.88	0.000
211.44	31.127	-9.663	39.22	0.32	9.636	6.245	-206.81		-0.88	0.000
211.71	31.080	-9.195	39.27	0.32	9.566	6.163	-193.23		-0.88	0.000
211.99	31.035	-8.702	39.32	0.32	9.507	6.127	-182.20		-0.88	0.000
212.27	30.994	-8.197	39.36	0.32	9.444	6.061	-192.87		-0.88	0.000
212.54	30.967	-7.656	39.38	0.32	9.399	6.001	-246.43		-0.88	0.000
212.82	30.931	-7.103	39.42	0.32	9.350	5.948	-267.88		-0.88	0.000
213.09	30.896	-6.514	39.45	0.32	9.342	5.901	-296.41		-0.88	0.000
213.37	30.865	-5.925	39.48	0.32	9.312	5.864	-298.90		-0.88	0.000
213.64	30.847	-5.313	39.50	0.32	9.279	5.834	-268.50		-0.88	0.000
213.92	30.823	-4.688	39.53	0.32	9.265	5.808	-245.38		-0.88	0.000
214.19	30.800	-4.038	39.55	0.32	9.246	5.784	-220.45		-0.88	0.000
214.47	30.791	-3.389	39.56	0.32	9.247	5.770	-222.01		-0.88	0.000
214.74	30.774	-2.740	39.58	0.32	9.231	5.759	-241.34		-0.88	0.000
215.01	30.764	-2.079	39.59	0.32	9.232	5.757	-248.19		-0.88	0.000
215.28	30.759	-1.406	39.59	0.32	9.230	5.751	-228.49		-0.88	0.000
215.55	30.751	-0.745	39.60	0.32	9.216	5.751	-207.52		-0.88	0.000
215.82	30.751	-0.072	39.60	0.32	9.242	5.751	-178.36		-0.88	0.000
216.09	30.751	0.577	39.60	0.32	9.237	5.754	-175.23		-0.88	0.000
216.36	30.751	1.238	39.60	0.32	9.240	5.759	-200.40		-0.88	0.000
216.63	30.751	1.887	39.60	0.32	9.252	5.765	-223.12		-0.88	0.000
216.90	30.753	2.548	39.60	0.32	9.255	5.771	-264.26		-0.88	0.000
217.17	30.764	3.197	39.59	0.32	9.257	5.774	-275.64		-0.88	0.000
217.44	30.785	3.834	39.57	0.32	9.258	5.777	-261.20		-0.88	0.000
217.71	30.806	4.459	39.54	0.32	9.263	5.780	-236.36		-0.88	0.000
217.98	30.821	5.084	39.53	0.32	9.261	5.785	-185.22		-0.88	0.000
218.26	30.849	5.697	39.50	0.32	9.264	5.788	-160.12		-0.88	0.000
218.53	30.880	6.298	39.47	0.32	9.269	5.791	-119.60		-0.88	0.000
218.80	30.913	6.875	39.44	0.32	9.267	5.793	-109.02		-0.88	0.000
219.08	30.936	7.440	39.41	0.32	9.268	5.795	-102.50		-0.88	0.000
219.35	30.976	7.981	39.37	0.32	9.275	5.798	-100.79		-0.88	0.000
219.62	31.018	8.498	39.33	0.32	9.295	5.805	-75.78		-0.88	0.000
219.90	31.045	9.002	39.31	0.32	9.306	5.823	-58.92		-0.88	0.000
220.17	31.091	9.483	39.26	0.32	9.340	5.832	-15.45		-0.88	0.000
220.44	31.140	9.928	39.21	0.32	9.359	5.856	-2.13		-0.88	0.000
220.71	31.190	10.349	39.16	0.32	9.386	5.893	-6.30		-0.88	0.000
220.98	31.226	10.745	39.12	0.32	9.430	5.931	-21.16		-0.88	0.000
221.25	31.280	11.106	39.07	0.32	9.468	5.970	-61.29		-0.88	0.000
221.52	31.337	11.442	39.01	0.32	9.501	6.015	-74.43		-0.88	0.000
221.79	31.376	11.743	38.97	0.32	9.543	6.061	-87.32		-0.88	0.000
222.06	31.435	12.019	38.92	0.32	9.588	6.107	-88.56		-0.88	0.000
222.33	31.496	12.272	38.85	0.32	9.607	6.132	-98.96		-0.88	0.000
222.60	31.537	12.476	38.81	0.32	9.647	6.182	-113.15		-0.88	0.000
222.88	31.599	12.656	38.75	0.32	9.698	6.228	-126.93		-0.88	0.000
223.15	31.663	12.812	38.69	0.32	9.752	6.281	-136.07		-0.88	0.000
223.42	31.727	12.921	38.62	0.32	9.803	6.341	-147.00		-0.88	0.000
223.70	31.772	13.005	38.58	0.32	9.858	6.404	-149.25		-0.88	0.000
223.97	31.837	13.053	38.51	0.31	9.923	6.471	-175.23		-0.88	0.000
224.24	31.903	13.065	38.45	0.31	10.006	6.544	-200.06		-0.88	0.000
224.52	31.945	13.041	38.41	0.31	10.114	6.628	-261.49		-0.88	0.000
224.79	32.009	12.981	38.34	0.31	10.237	6.725	-288.54		-0.88	0.000
225.07	32.074	12.885	38.28	0.31	10.302	6.783	-287.25		-0.88	0.000
225.34	32.138	12.752	38.21	0.31	10.454	6.908	-270.39		-0.88	0.000
225.62	32.181	12.596	38.17	0.31	10.623	7.056	-273.61		-0.88	0.000
225.89	32.242	12.404	38.11	0.31	10.804	7.217	-306.28		-0.88	0.000
226.16	32.304	12.175	38.05	0.31	10.981	7.394	-334.11		-0.88	0.000
226.44	32.365	11.911	37.98	0.31	11.179	7.582	-390.36		-0.88	0.000
226.71	32.405	11.623	37.94	0.31	11.369	7.777	-398.40		-0.88	0.000
226.99	32.462	11.298	37.89	0.31	11.562	7.980	-390.71		-0.88	0.000
227.26	32.517	10.950	37.83	0.31	11.758	8.181	-378.62		-0.88	0.000
227.54	32.570	10.553	37.78	0.31	11.938	8.378	-351.08		-0.88	0.000
227.81	32.606	10.144	37.74	0.31	12.034	8.570	-337.96		-0.88	0.000
228.09	32.655	9.700	37.69	0.31	12.217	8.757	-309.53		-0.88	0.000
228.36	32.703	9.243	37.65	0.31	12.390	8.850	-284.37		-0.88	0.000
228.64	32.732	8.750	37.62	0.31	12.561	9.030	-234.30		-0.88	0.000
228.91	32.774	8.245	37.58	0.31	12.726	9.203	-196.59		-0.88	0.000
229.19	32.814	7.704	37.54	0.31	12.877	9.369	-105.09		-0.88	0.000
229.47	32.851	7.151	37.50	0.31	13.004	9.523	-67.52		-0.88	0.000
229.74	32.874	6.562	37.48	0.31	13.143	9.670	-10.34		-0.88	0.000
230.01	32.904	5.962	37.45	0.31	13.262	9.804	11.27		-0.88	0.000
230.28	32.932	5.349	37.42	0.31	13.372	9.928	38.24		-0.88	0.000
230.55	32.956	4.748	37.39	0.31	13.421	10.041	50.19		-0.88	0.000
230.82	32.973	4.111	37.38	0.31	13.496	10.139	64.86		-0.88	0.000
231.09	32.986	3.474	37.36	0.31	13.566	10.182	64.78		-0.88	0.000
231.36	33.004	2.825	37.35	0.31	13.643	10.261	55.10		-0.88	0.000
231.62	33.011	2.175	37.34	0.31	13.711	10.326	50.94		-0.88	0.000
231.89	33.019	1.526	37.33	0.31	13.713	10.386	38.58		-0.88	0.000
232.16	33.023	0.877	37.33	0.31	13.728	10.425	38.41		-0.88	0.000
232.43	33.029	0.204	37.32	0.31	13.763	10.453	49.31		-0.88	0.000
232.70	33.029	-0.433	37.32	0.31	13.757	10.475	63.46		-0.88	0.000
232.97	33.029	-1.094	37.32	0.31	13.762	10.486	115.05		-0.88	0.000
233.24	33.029	-1.755	37.32	0.31	13.760	10.488	144.58		-0.88	0.000
233.50	33.028	-2.404	37.32	0.31	13.763	10.487	200.87		-0.88	0.000
233.78	33.013	-3.053	37.34	0.31	13.753	10.485	228.56		-0.88	0.000
234.05	33.003	-3.690	37.35	0.31	13.732	10.476	240.75		-0.88	0.000
234.33	32.978	-4.339	37.37	0.31	13.709	10.469	232.50		-0.88	0.000
234.60	32.955	-4.964	37.39	0.31	13.694	10.454	195.25		-0.88	0.000
234.87	32.929	-5.589	37.42	0.31	13.647	10.434	174.56		-0.88	0.000
235.15	32.909	-6.190	37.44	0.31	13.593	10.393	136.15		-0.88	0.000
235.42	32.877	-6.767	37.47	0.31	13.565	10.333	120.92		-0.88	0.000
235.69	32.841	-7.332	37.51	0.31	13.537	10.307	93.10		-0.88	0.000
235.97	32.814	-7.873	37.54	0.31	13.513	10.264	80.97		-0.88	0.000
236.24	32.773	-8.401	37.58	0.31	13.501	10.234	60.40		-0.88	0.000
236.51	32.731	-8.906	37.62	0.31	13.458	10.211	53.10		-0.88	0.000
236.78	32.685	-9.387	37.67	0.31	13.363	10.185	32.82		-0.88	0.000
237.06	32.653	-9.844	37.70	0.31	13.317	10.118	16.73		-0.88	0.000
237.33	32.603	-10.276	37.75	0.31	13.197	10.014	-26.27		-0.88	0.000
237.61	32.549	-10.673	37.80	0.31	13.070	9.891	-47.76		-0.88	0.000
237.89	32.495	-11.046	37.86	0.31	12.936	9.746	-97.80		-0.88	0.000
238.16	32.459	-11.406	37.89	0.31	12.799	9.590	-120.48		-0.88	0.000
238.44	32.401	-11.719	37.95	0.31	12.631	9.427	-147.38		-0.88	0.000
238.72	32.341	-11.995	38.01	0.31	12.489	9.261	-182.16		-0.88	0.000
239.00	32.281	-12.260	38.07	0.31	12.344	9.173	-204.34		-0.88	0.000
239.28	32.240	-12.476	38.11	0.31	12.185	9.005	-276.01		-0.88	0.000
239.56	32.177	-12.656	38.17	0.31	12.021	8.841	-324.03		-0.88	0.000
239.84	32.113	-12.812	38.24	0.31	11.862	8.665	-367.70		-0.88	0.000
240.11	32.049	-12.933	38.30	0.31	11.702	8.491	-369.21		-0.88	0.000
240.39	32.005	-13.005	38.34	0.31	11.543	8.317	-325.03		-0.88	0.000
240.67	31.940	-13.053	38.41	0.31	11.468	8.144	-283.39		-0.88	0.000
240.94	31.876	-13.065	38.47	0.31	11.305	7.975	-211.49		-0.88	0.000
241.23	31.809	-13.029	38.54	0.32	11.150	7.810	-185.88		-0.88	0.000
241.51	31.745	-12.969	38.61	0.32	11.007	7.649	-152.69		-0.88	0.000
241.78	31.700	-12.873	38.65	0.32	10.848	7.494	-127.72		-0.88	0.000
242.06	31.638	-12.728	38.71	0.32	10.639	7.337	-67.03		-0.88	0.000
242.34	31.573	-12.560	38.78	0.32	10.445	7.159	-22.74		-0.88	0.000
242.61	31.510	-12.356	38.84	0.32	10.285	6.987	83.42		-0.88	0.000
242.88	31.472	-12.127	38.88	0.32	10.128	6.823	195.39		-0.88	0.000
243.16	31.410	-11.851	38.94	0.32	9.991	6.745	242.77		-0.88	0.000
243.43	31.353	-11.563	39.00	0.32	9.865	6.605	290.55		-0.88	0.000
243.70	31.314	-11.238	39.04	0.32	9.799	6.485	289.88		-0.88	0.000
243.97	31.259	-10.877	39.09	0.32	9.704	6.374	268.01		-0.88	0.000
244.24	31.206	-10.493	39.14	0.32	9.619	6.271	243.80		-0.88	0.000
244.52	31.155	-10.084	39.19	0.32	9.524	6.179	192.95		-0.88	0.000
244.79	31.123	-9.639	39.23	0.32	9.445	6.097	166.47		-0.88	0.000
245.06	31.076	-9.171	39.27	0.32	9.387	6.023	95.63		-0.88	0.000
245.34	31.031	-8.678	39.32	0.32	9.326	5.957	53.07		-0.88	0.000
245.61	31.003	-8.173	39.35	0.32	9.267	5.896	-13.97		-0.88	0.000
245.88	30.964	-7.632	39.39	0.32	9.239	5.868	-43.82		-0.88	0.000
246.16	30.926	-7.079	39.42	0.32	9.209	5.819	-78.96		-0.88	0.000
246.43	30.892	-6.502	39.46	0.32	9.180	5.776	-81.79		-0.88	0.000
246.71	30.872	-5.901	39.48	0.32	9.154	5.740	-68.16		-0.88	0.000
246.98	30.846	-5.300	39.50	0.32	9.118	5.710	-55.94		-0.88	0.000
247.25	30.821	-4.675	39.53	0.32	9.107	5.689	-4.14		-0.88	0.000
247.52	30.806	-4.038	39.54	0.32	9.094	5.668	33.73		-0.88	0.000
247.79	30.790	-3.413	39.56	0.32	9.098	5.653	107.98		-0.88	0.000
248.06	30.778	-2.752	39.57	0.32	9.077	5.644	137.56		-0.88	0.000
248.33	30.767	-2.103	39.58	0.32	9.087	5.640	200.04		-0.88	0.000
248.60	30.762	-1.454	39.59	0.32	9.089	5.636	224.66		-0.88	0.000
248.87	30.754	-0.781	39.60	0.32	9.067	5.634	268.82		-0.88	0.000
249.14	30.754	-0.108	39.60	0.32	9.088	5.633	285.04		-0.88	0.000
249.40	30.751	0.541	39.60	0.32	9.087	5.637	291.37		-0.88	0.000
249.67	30.751	1.190	39.60	0.32	9.099	5.641	272.19		-0.88	0.000
249.94	30.751	1.851	39.60	0.32	9.103	5.645	220.32		-0.88	0.000
250.20	30.753	2.500	39.60	0.32	9.100	5.652	189.97		-0.88	0.000
250.47	30.769	3.137	39.58	0.32	9.113	5.655	163.59		-0.88	0.000
250.74	30.781	3.762	39.57	0.32	9.111	5.659	125.15		-0.88	0.000
251.01	30.800	4.399	39.55	0.32	9.117	5.662	116.39		-0.88	0.000
251.28	30.826	5.024	39.52	0.32	9.115	5.665	117.36		-0.88	0.000
251.56	30.853	5.625	39.50	0.32	9.126	5.667	120.85		-0.88	0.000
251.83	30.873	6.226	39.48	0.32	9.119	5.671	124.37		-0.88	0.000
252.09	30.906	6.803	39.44	0.32	9.113	5.673	109.38		-0.88	0.000
252.36	30.941	7.356	39.41	0.32	9.126	5.675	61.74		-0.88	0.000
252.63	30.967	7.897	39.38	0.32	9.120	5.676	42.88		-0.88	0.000
252.90	31.008	8.413	39.34	0.32	9.137	5.679	9.58		-0.88	0.000
253.17	31.051	8.906	39.30	0.32	9.153	5.689	-5.58		-0.88	0.000
253.44	31.081	9.387	39.27	0.32	9.176	5.706	-45.64		-0.88	0.000
253.71	31.130	9.832	39.22	0.32	9.210	5.731	-66.20		-0.88	0.000
253.99	31.180	10.252	39.17	0.32	9.242	5.764	-103.52		-0.88	0.000
254.26	31.214	10.661	39.14	0.32	9.283	5.803	-118.90		-0.88	0.000
254.53	31.268	11.034	39.08	0.32	9.296	5.841	-147.45		-0.88	0.000
254.80	31.324	11.382	39.03	0.32	9.339	5.885	-158.90		-0.88	0.000
255.08	31.383	11.695	38.97	0.32	9.378	5.906	-150.44		-0.88	0.000
255.35	31.421	11.971	38.93	0.32	9.414	5.947	-124.13		-0.88	0.000
255.62	31.482	12.236	38.87	0.32	9.443	5.994	-71.86		-0.88	0.000
255.89	31.544	12.452	38.81	0.32	9.494	6.037	-50.50		-0.88	0.000
256.16	31.587	12.632	38.76	0.32	9.547	6.082	-13.63		-0.88	0.000
256.43	31.649	12.788	38.70	0.32	9.585	6.132	-1.98		-0.88	0.000
256.70	31.713	12.909	38.64	0.32	9.618	6.189	22.69		-0.88	0.000
256.97	31.758	12.993	38.59	0.32	9.665	6.248	32.42		-0.88	0.000
257.24	31.823	13.041	38.53	0.31	9.727	6.277	46.59		-0.88	0.000
257.51	31.887	13.065	38.46	0.31	9.808	6.346	49.65		-0.88	0.000
257.78	31.931	13.041	38.42	0.31	9.894	6.422	41.83		-0.88	0.000
258.04	31.997	12.993	38.35	0.31	10.004	6.508	37.74		-0.88	0.000
258.32	32.060	12.921	38.29	0.31	10.132	6.610	31.39		-0.88	0.000
258.58	32.104	12.800	38.25	0.31	10.205	6.729	46.94		-0.88	0.000
258.86	32.167	12.656	38.18	0.31	10.355	6.872	77.99		-0.88	0.000
259.13	32.231	12.476	38.12	0.31	10.539	7.029	87.86		-0.88	0.000
259.41	32.292	12.248	38.06	0.31	10.696	7.198	100.40		-0.88	0.000
259.68	32.333	12.007	38.02	0.31	10.865	7.289	104.33		-0.88	0.000
259.95	32.392	11.719	37.96	0.31	11.069	7.471	105.22		-0.88	0.000
260.23	32.449	11.406	37.90	0.31	11.267	7.660	99.96		-0.88	0.000
260.50	32.505	11.058	37.84	0.31	11.441	7.861	58.49		-0.88	0.000
260.77	32.542	10.697	37.81	0.31	11.618	8.058	34.95		-0.88	0.000
261.04	32.595	10.288	37.76	0.31	11.718	8.243	-26.37		-0.88	0.000
261.31	32.645	9.868	37.71	0.31	11.895	8.429	-65.15		-0.88	0.000
261.59	32.677	9.423	37.67	0.31	12.078	8.617	-147.61		-0.88	0.000
261.86	32.723	8.942	37.63	0.31	12.250	8.794	-175.43		-0.88	0.000
262.14	32.767	8.438	37.58	0.31	12.404	8.964	-193.75		-0.88	0.000
262.41	32.806	7.921	37.54	0.31	12.562	9.049	-191.80		-0.88	0.000
262.69	32.831	7.356	37.52	0.31	12.715	9.211	-190.50		-0.88	0.000
262.97	32.867	6.803	37.48	0.31	12.852	9.365	-206.56		-0.88	0.000
263.24	32.899	6.202	37.45	0.31	12.971	9.506	-214.20		-0.88	0.000
263.52	32.929	5.589	37.42	0.31	13.086	9.637	-213.78		-0.88	0.000
263.79	32.944	4.964	37.41	0.31	13.176	9.755	-202.67		-0.88	0.000
264.06	32.968	4.339	37.38	0.31	13.231	9.862	-157.76		-0.88	0.000
264.34	32.985	3.690	37.37	0.31	13.316	9.958	-128.39		-0.88	0.000
264.61	32.995	3.041	37.36	0.31	13.368	10.037	-79.68		-0.88	0.000
264.88	33.011	2.392	37.34	0.31	13.437	10.105	-66.71		-0.88	0.000
265.15	33.020	1.731	37.33	0.31	13.461	10.163	-70.76		-0.88	0.000
265.42	33.024	1.058	37.33	0.31	13.510	10.187	-81.62		-0.88	0.000
265.69	33.027	0.397	37.32	0.31	13.511	10.222	-110.12		-0.88	0.000
265.96	33.028	-0.264	37.32	0.31	13.515	10.242	-110.97		-0.88	0.000
266.23	33.028	-0.925	37.32	0.31	13.524	10.254	-83.55		-0.88	0.000
266.50	33.028	-1.587	37.32	0.31	13.525	10.258	-74.83		-0.88	0.000
266.77	33.028	-2.248	37.32	0.31	13.532	10.256	-72.66		-0.88	0.000
267.04	33.019	-2.897	37.33	0.31	13.507	10.251	-76.89		-0.88	0.000
267.32	33.005	-3.546	37.34	0.31	13.497	10.247	-86.09		-0.88	0.000
267.60	32.986	-4.183	37.36	0.31	13.488	10.240	-82.48		-0.88	0.000
267.87	32.963	-4.820	37.39	0.31	13.451	10.225	-88.70		-0.88	0.000
268.15	32.937	-5.445	37.41	0.31	13.405	10.217	-102.32		-0.88	0.000
268.43	32.917	-6.058	37.43	0.31	13.339	10.190	-129.81		-0.88	0.000
268.70	32.885	-6.647	37.47	0.31	13.322	10.141	-145.15		-0.88	0.000
268.98	32.849	-7.236	37.50	0.31	13.306	10.081	-176.10		-0.88	0.000
269.26	32.812	-7.776	37.54	0.31	13.283	10.031	-196.36		-0.88	0.000
269.53	32.786	-8.329	37.56	0.31	13.271	10.000	-225.02		-0.88	0.000
269.82	32.742	-8.834	37.61	0.31	13.226	9.974	-242.31		-0.88	0.000
270.10	32.697	-9.327	37.65	0.31	13.155	9.946	-287.80		-0.88	0.000
270.37	32.649	-9.796	37.70	0.31	13.051	9.880	-316.97		-0.88	0.000
270.65	32.597	-10.240	37.75	0.31	12.956	9.781	-375.17		-0.88	0.000
270.93	32.563	-10.649	37.79	0.31	12.810	9.658	-357.64		-0.88	0.000
271.20	32.509	-11.034	37.84	0.31	12.685	9.512	-331.04		-0.88	0.000
271.48	32.454	-11.382	37.90	0.31	12.539	9.352	-265.40		-0.88	0.000
271.76	32.396	-11.695	37.95	0.31	12.379	9.189	-234.70		-0.88	0.000
272.03	32.356	-11.983	37.99	0.31	12.231	9.106	-189.48		-0.88	0.000
272.31	32.295	-12.236	38.06	0.31	12.156	8.934	-163.56		-0.88	0.000
272.58	32.233	-12.464	38.12	0.31	12.001	8.764	-107.15		-0.88	0.000
272.86	32.171	-12.644	38.18	0.31	11.843	8.592	-71.47		-0.88	0.000
273.14	32.129	-12.800	38.22	0.31	11.689	8.420	15.25		-0.88	0.000
273.41	32.064	-12.921	38.29	0.31	11.526	8.250	59.15		-0.88	0.000
273.68	32.000	-13.005	38.35	0.31	11.368	8.073	111.70		-0.88	0.000
273.97	31.935	-13.053	38.42	0.31	11.221	7.904	114.52		-0.88	0.000
274.24	31.890	-13.065	38.46	0.31	11.056	7.735	66.22		-0.88	0.000
274.51	31.824	-13.041	38.53	0.31	10.921	7.574	21.23		-0.88	0.000
274.79	31.762	-12.981	38.59	0.32	10.772	7.412	-74.64		-0.88	0.000
275.07	31.695	-12.885	38.66	0.32	10.623	7.265	-124.16		-0.88	0.000
275.35	31.654	-12.764	38.70	0.32	10.417	7.120	-220.62		-0.88	0.000
275.62	31.588	-12.596	38.76	0.32	10.322	7.036	-296.47		-0.88	0.000
275.90	31.527	-12.404	38.82	0.32	10.167	6.867	-322.60		-0.88	0.000
276.17	31.465	-12.163	38.88	0.32	9.996	6.702	-343.22		-0.88	0.000
276.45	31.426	-11.899	38.92	0.32	9.864	6.552	-342.75		-0.88	0.000
276.73	31.367	-11.611	38.98	0.32	9.745	6.415	-319.73		-0.88	0.000
277.00	31.310	-11.286	39.04	0.32	9.643	6.300	-301.89		-0.88	0.000
277.27	31.273	-10.925	39.08	0.32	9.533	6.194	-265.75		-0.88	0.000
277.55	31.219	-10.541	39.13	0.32	9.444	6.091	-252.70		-0.88	0.000
277.82	31.167	-10.132	39.18	0.32	9.360	6.006	-229.39		-0.88	0.000
278.09	31.117	-9.700	39.23	0.32	9.288	5.920	-211.18		-0.88	0.000
278.36	31.087	-9.231	39.26	0.32	9.268	5.850	-161.27		-0.88	0.000
278.64	31.040	-8.738	39.31	0.32	9.202	5.815	-153.77		-0.88	0.000
278.91	30.999	-8.233	39.35	0.32	9.156	5.752	-186.97		-0.88	0.000
279.19	30.962	-7.692	39.39	0.32	9.110	5.699	-228.04		-0.88	0.000
279.46	30.933	-7.139	39.42	0.32	9.058	5.652	-334.97		-0.88	0.000
279.73	30.900	-6.562	39.45	0.32	9.048	5.614	-390.22		-0.88	0.000
280.01	30.869	-5.974	39.48	0.32	9.012	5.577	-464.80		-0.88	0.000
280.29	30.851	-5.373	39.50	0.32	8.989	5.554	-472.54		-0.88	0.000
280.57	30.826	-4.736	39.52	0.32	8.962	5.528	-441.11		-0.88	0.000
280.84	30.808	-4.087	39.54	0.32	8.967	5.508	-411.37		-0.88	0.000
281.11	30.789	-3.438	39.56	0.32	8.961	5.495	-356.49		-0.88	0.000
281.39	30.780	-2.800	39.57	0.32	8.943	5.483	-336.80		-0.88	0.000
281.66	30.769	-2.139	39.58	0.32	8.955	5.481	-297.95		-0.88	0.000
281.93	30.759	-1.466	39.59	0.32	8.934	5.476	-283.46		-0.88	0.000
282.20	30.754	-0.793	39.60	0.32	8.952	5.475	-259.16		-0.88	0.000
282.47	30.753	-0.120	39.60	0.32	8.954	5.475	-252.27		-0.88	0.000
282.74	30.753	0.529	39.60	0.32	8.956	5.479	-258.47		-0.88	0.000
283.01	30.753	1.190	39.60	0.32	8.962	5.486	-268.44		-0.88	0.000
283.28	30.753	1.851	39.60	0.32	8.962	5.490	-322.14		-0.88	0.000
283.55	30.753	2.500	39.60	0.32	8.973	5.498	-358.81		-0.88	0.000
283.82	30.769	3.149	39.58	0.32	8.971	5.504	-424.26		-0.88	0.000
284.09	30.781	3.798	39.57	0.32	8.973	5.506	-442.79		-0.88	0.000
284.36	30.803	4.423	39.55	0.32	8.975	5.508	-467.28		-0.88	0.000
284.62	30.824	5.048	39.53	0.32	8.970	5.512	-466.86		-0.88	0.000
284.90	30.845	5.649	39.51	0.32	8.980	5.515	-458.47		-0.88	0.000
285.17	30.876	6.238	39.47	0.32	8.978	5.517	-443.52		-0.88	0.000
285.45	30.909	6.827	39.44	0.32	8.984	5.522	-399.30		-0.88	0.000
285.73	30.944	7.392	39.41	0.32	8.987	5.525	-372.02		-0.88	0.000
286.00	30.969	7.945	39.38	0.32	8.984	5.530	-324.80		-0.88	0.000
286.27	31.010	8.474	39.34	0.32	8.999	5.533	-308.27		-0.88	0.000
286.55	31.054	8.966	39.30	0.32	9.014	5.539	-280.49		-0.88	0.000
286.82	31.083	9.435	39.27	0.32	9.039	5.558	-279.33		-0.88	0.000
287.09	31.133	9.904	39.22	0.32	9.068	5.580	-286.64		-0.88	0.000
287.36	31.185	10.325	39.17	0.32	9.101	5.612	-287.22		-0.88	0.000
287.63	31.237	10.721	39.11	0.32	9.132	5.651	-292.49		-0.88	0.000
287.90	31.272	11.082	39.08	0.32	9.154	5.689	-282.48		-0.88	0.000
288.18	31.328	11.430	39.02	0.32	9.191	5.731	-279.20		-0.88	0.000
288.45	31.387	11.731	38.96	0.32	9.224	5.772	-280.97		-0.88	0.000
288.72	31.426	12.019	38.92	0.32	9.267	5.816	-311.17		-0.88	0.000
289.00	31.487	12.260	38.86	0.32	9.299	5.859	-321.74		-0.88	0.000
289.27	31.549	12.476	38.80	0.32	9.341	5.883	-339.21		-0.88	0.000
289.54	31.613	12.656	38.74	0.32	9.394	5.927	-349.89		-0.88	0.000
289.82	31.654	12.812	38.70	0.32	9.434	5.974	-390.78		-0.88	0.000
290.09	31.719	12.921	38.63	0.32	9.480	6.030	-440.76		-0.88	0.000
290.36	31.785	13.005	38.57	0.32	9.510	6.085	-437.76		-0.88	0.000
290.63	31.828	13.053	38.52	0.31	9.564	6.147	-412.10		-0.88	0.000
290.91	31.894	13.065	38.46	0.31	9.635	6.217	-392.93		-0.88	0.000
291.18	31.959	13.041	38.39	0.31	9.722	6.294	-339.73		-0.88	0.000
291.45	32.024	12.981	38.33	0.31	9.828	6.379	-318.37		-0.88	0.000
291.73	32.065	12.885	38.28	0.31	9.949	6.484	-283.22		-0.88	0.000
292.00	32.129	12.764	38.22	0.31	10.093	6.544	-258.43		-0.88	0.000
292.27	32.192	12.608	38.16	0.31	10.248	6.674	-192.23		-0.88	0.000
292.55	32.236	12.404	38.11	0.31	10.413	6.820	-146.63		-0.89	0.000
292.83	32.297	12.175	38.05	0.31	10.579	6.985	-32.94		-0.89	0.000
293.10	32.356	11.923	37.99	0.31	10.668	7.156	13.52		-0.89	0.000
293.37	32.417	11.623	37.93	0.31	10.854	7.341	51.65		-0.89	0.000
293.64	32.454	11.298	37.90	0.31	11.033	7.531	47.23		-0.89	0.000
293.91	32.510	10.950	37.84	0.31	11.217	7.722	9.69		-0.89	0.000
294.18	32.564	10.577	37.79	0.31	11.391	7.911	-10.13		-0.89	0.000
294.45	32.597	10.180	37.75	0.31	11.565	8.101	-15.37		-0.89	0.000
294.73	32.647	9.736	37.70	0.31	11.744	8.190	-5.21		-0.89	0.000
295.00	32.696	9.279	37.65	0.31	11.918	8.370	14.06		-0.89	0.000
295.28	32.740	8.798	37.61	0.31	12.077	8.551	21.56		-0.89	0.000
295.55	32.769	8.281	37.58	0.31	12.161	8.721	12.00		-0.89	0.000
295.82	32.809	7.752	37.54	0.31	12.319	8.890	-11.85		-0.89	0.000
296.09	32.845	7.212	37.51	0.31	12.459	9.047	-70.21		-0.89	0.000
296.36	32.869	6.647	37.48	0.31	12.590	9.194	-97.03		-0.89	0.000
296.64	32.900	6.058	37.45	0.31	12.716	9.328	-140.54		-0.89	0.000
296.91	32.927	5.445	37.42	0.31	12.835	9.453	-143.09		-0.89	0.000
297.19	32.954	4.832	37.40	0.31	12.935	9.567	-146.64		-0.89	0.000
297.46	32.969	4.195	37.38	0.31	13.013	9.621	-146.76		-0.89	0.000
297.73	32.987	3.558	37.36	0.31	13.061	9.720	-171.71		-0.89	0.000
298.00	33.003	2.909	37.35	0.31	13.132	9.802	-197.55		-0.89	0.000
298.27	33.010	2.248	37.34	0.31	13.177	9.872	-244.94		-0.89	0.000
298.55	33.019	1.587	37.33	0.31	13.204	9.930	-253.16		-0.89	0.000
298.82	33.023	0.913	37.33	0.31	13.253	9.971	-212.06		-0.89	0.000
299.09	33.026	0.252	37.32	0.31	13.250	10.001	-183.91		-0.89	0.000
299.36	33.027	-0.409	37.32	0.31	13.262	10.018	-116.95		-0.89	0.000
299.63	33.027	-1.070	37.32	0.31	13.278	10.028	-97.60		-0.89	0.000
299.90	33.027	-1.755	37.32	0.31	13.266	10.033	-64.62		-0.89	0.000
300.17	33.027	-2.404	37.32	0.31	13.279	10.032	-44.84		-0.89	0.000
300.44	33.017	-3.053	37.33	0.31	13.268	10.027	2.13		-0.89	0.000
300.71	32.997	-3.702	37.35	0.31	13.254	10.023	35.99		-0.89	0.000
300.99	32.982	-4.315	37.37	0.31	13.236	10.015	111.93		-0.89	0.000
301.26	32.959	-4.952	37.39	0.31	13.196	10.004	147.32		-0.89	0.000
301.53	32.933	-5.565	37.42	0.31	13.151	9.991	191.53		-0.89	0.000
301.81	32.903	-6.166	37.45	0.31	13.084	9.948	202.78		-0.89	0.000
302.08	32.882	-6.743	37.47	0.31	13.072	9.891	217.32		-0.89	0.000
302.35	32.845	-7.320	37.51	0.31	13.037	9.831	231.50		-0.89	0.000
302.63	32.806	-7.861	37.54	0.31	13.028	9.808	264.35		-0.89	0.000
302.90	32.767	-8.389	37.58	0.31	13.022	9.776	268.08		-0.89	0.000
303.18	32.737	-8.894	37.61	0.31	12.982	9.748	231.72		-0.89	0.000
303.45	32.691	-9.387	37.66	0.31	12.907	9.717	201.31		-0.89	0.000
303.73	32.644	-9.844	37.71	0.31	12.795	9.657	125.59		-0.89	0.000
304.00	32.609	-10.264	37.74	0.31	12.694	9.562	83.33		-0.89	0.000
304.27	32.558	-10.673	37.79	0.31	12.550	9.439	12.90		-0.89	0.000
304.54	32.504	-11.046	37.85	0.31	12.417	9.292	-13.04		-0.89	0.000
304.82	32.446	-11.394	37.90	0.31	12.263	9.137	-44.00		-0.89	0.000
305.09	32.408	-11.707	37.94	0.31	12.188	8.969	-55.36		-0.89	0.000
305.37	32.349	-11.983	38.00	0.31	12.040	8.796	-83.22		-0.89	0.000
305.65	32.287	-12.236	38.06	0.31	11.893	8.711	-95.88		-0.89	0.000
305.93	32.227	-12.464	38.12	0.31	11.760	8.542	-90.37		-0.89	0.000
306.20	32.185	-12.644	38.17	0.31	11.588	8.374	-55.67		-0.89	0.000
306.48	32.122	-12.800	38.23	0.31	11.420	8.201	-32.93		-0.89	0.000
306.75	32.056	-12.921	38.29	0.31	11.272	8.030	29.59		-0.89	0.000
307.02	31.992	-13.005	38.36	0.31	11.120	7.856	58.89		-0.89	0.000
307.30	31.950	-13.053	38.40	0.31	10.981	7.690	102.14		-0.89	0.000
307.58	31.883	-13.065	38.47	0.31	10.820	7.527	109.57		-0.89	0.000
307.85	31.819	-13.041	38.53	0.32	10.689	7.368	73.42		-0.89	0.000
308.13	31.754	-12.981	38.60	0.32	10.624	7.216	46.43		-0.89	0.000
308.40	31.709	-12.885	38.64	0.32	10.477	7.072	17.87		-0.89	0.000
308.68	31.646	-12.764	38.70	0.32	10.291	6.930	16.39		-0.89	0.000
308.95	31.583	-12.596	38.77	0.32	10.117	6.768	13.22		-0.89	0.000
309.22	31.541	-12.404	38.81	0.32	9.967	6.686	-8.31		-0.89	0.000
309.50	31.480	-12.175	38.87	0.32	9.803	6.534	-79.69		-0.89	0.000
309.78	31.418	-11.911	38.93	0.32	9.677	6.387	-128.53		-0.89	0.000
310.05	31.360	-11.623	38.99	0.32	9.564	6.253	-229.20		-0.89	0.000
310.32	31.322	-11.286	39.03	0.32	9.452	6.138	-266.85		-0.89	0.000
310.60	31.267	-10.937	39.08	0.32	9.366	6.033	-308.97		-0.89	0.000
310.87	31.214	-10.553	39.14	0.32	9.315	5.936	-306.17		-0.89	0.000
311.14	31.163	-10.144	39.19	0.32	9.240	5.851	-288.86		-0.89	0.000
311.41	31.128	-9.712	39.22	0.32	9.171	5.769	-287.23		-0.89	0.000
311.69	31.082	-9.243	39.27	0.32	9.100	5.701	-279.49		-0.89	0.000
311.97	31.036	-8.762	39.31	0.32	9.046	5.670	-258.73		-0.89	0.000
312.24	31.006	-8.245	39.34	0.32	8.998	5.611	-171.69		-0.89	0.000
312.51	30.968	-7.704	39.38	0.32	8.970	5.560	-116.55		-0.89	0.000
312.78	30.932	-7.151	39.42	0.32	8.926	5.513	0.47		-0.89	0.000
313.05	30.899	-6.587	39.45	0.32	8.899	5.474	49.62		-0.89	0.000
313.32	30.876	-5.998	39.47	0.32	8.886	5.443	112.80		-0.89	0.000
313.59	30.850	-5.409	39.50	0.32	8.862	5.419	122.82		-0.89	0.000
313.87	30.824	-4.784	39.53	0.32	8.848	5.397	125.39		-0.89	0.000
314.14	30.810	-4.159	39.54	0.32	8.823	5.378	127.29		-0.89	0.000
314.41	30.792	-3.510	39.56	0.32	8.828	5.366	130.43		-0.89	0.000
314.68	30.777	-2.873	39.57	0.32	8.818	5.359	123.77		-0.89	0.000
314.95	30.769	-2.212	39.58	0.32	8.811	5.351	97.33		-0.89	0.000
315.22	30.760	-1.550	39.59	0.32	8.809	5.347	81.05		-0.89	0.000
315.49	30.755	-0.889	39.59	0.32	8.812	5.347	52.50		-0.89	0.000
315.75	30.753	-0.228	39.60	0.32	8.817	5.350	38.98		-0.89	0.000
316.02	30.751	0.421	39.60	0.32	8.817	5.351	1.23		-0.89	0.000
316.28	30.751	1.070	39.60	0.32	8.835	5.355	-20.67		-0.89	0.000
316.55	30.751	1.719	39.60	0.32	8.828	5.358	-77.38		-0.89	0.000
316.82	30.751	2.356	39.60	0.32	8.837	5.364	-108.19		-0.89	0.000
317.09	30.767	3.005	39.58	0.32	8.840	5.369	-168.83		-0.89	0.000
317.36	30.777	3.642	39.57	0.32	8.831	5.374	-186.78		-0.89	0.000
317.63	30.799	4.291	39.55	0.32	8.843	5.378	-187.29		-0.89	0.000
317.90	30.821	4.904	39.53	0.32	8.839	5.381	-175.01		-0.89	0.000
318.18	30.849	5.517	39.50	0.32	8.841	5.387	-137.59		-0.89	0.000
318.45	30.869	6.118	39.48	0.32	8.841	5.390	-115.84		-0.89	0.000
318.72	30.901	6.707	39.45	0.32	8.853	5.393	-75.42		-0.89	0.000
318.99	30.936	7.272	39.41	0.32	8.851	5.393	-48.66		-0.89	0.000
319.27	30.963	7.825	39.39	0.32	8.848	5.395	28.39		-0.89	0.000
319.54	31.003	8.341	39.35	0.32	8.865	5.401	76.48		-0.89	0.000
319.81	31.046	8.858	39.30	0.32	8.869	5.406	151.29		-0.89	0.000
320.08	31.077	9.327	39.27	0.32	8.890	5.424	160.74		-0.89	0.000
320.35	31.123	9.784	39.23	0.32	8.920	5.451	120.18		-0.89	0.000
320.62	31.173	10.216	39.18	0.32	8.969	5.481	78.35		-0.89	0.000
320.89	31.224	10.613	39.13	0.32	8.990	5.517	-19.34		-0.89	0.000
321.16	31.262	10.986	39.09	0.32	8.996	5.536	-63.54		-0.89	0.000
321.43	31.317	11.334	39.03	0.32	9.066	5.569	-133.37		-0.89	0.000
321.71	31.374	11.647	38.98	0.32	9.054	5.611	-158.54		-0.89	0.000
321.98	31.414	11.935	38.94	0.32	9.083	5.651	-188.61		-0.89	0.000
322.25	31.474	12.200	38.88	0.32	9.151	5.696	-194.80		-0.89	0.000
322.52	31.536	12.416	38.81	0.32	9.190	5.734	-194.96		-0.89	0.000
322.80	31.597	12.608	38.75	0.32	9.228	5.780	-177.80		-0.89	0.000
323.08	31.640	12.764	38.71	0.32	9.258	5.826	-157.59		-0.89	0.000
323.35	31.704	12.897	38.65	0.32	9.325	5.881	-151.82		-0.89	0.000
323.63	31.769	12.981	38.58	0.32	9.367	5.935	-135.10		-0.89	0.000
323.90	31.813	13.041	38.54	0.32	9.424	5.996	-121.35		-0.89	0.000
324.17	31.878	13.065	38.47	0.31	9.486	6.027	-95.92		-0.89	0.000
324.44	31.944	13.053	38.41	0.31	9.523	6.092	-89.51		-0.89	0.000
324.71	32.008	12.993	38.34	0.31	9.638	6.173	-111.26		-0.89	0.000
324.99	32.051	12.921	38.30	0.31	9.739	6.263	-138.31		-0.89	0.000
325.26	32.115	12.800	38.23	0.31	9.875	6.374	-224.21		-0.89	0.000
325.53	32.179	12.644	38.17	0.31	10.001	6.502	-273.46		-0.89	0.000
325.81	32.221	12.464	38.13	0.31	10.161	6.643	-363.59		-0.89	0.000
326.08	32.282	12.248	38.07	0.31	10.316	6.795	-389.53		-0.89	0.000
326.36	32.344	11.995	38.01	0.31	10.489	6.958	-388.65		-0.89	0.000
326.64	32.401	11.707	37.95	0.31	10.670	7.135	-395.85		-0.89	0.000
326.91	32.441	11.394	37.91	0.31	10.843	7.317	-401.82		-0.89	0.000
327.19	32.496	11.046	37.85	0.31	10.933	7.413	-409.06		-0.89	0.000
327.47	32.553	10.673	37.80	0.31	11.109	7.602	-390.62		-0.89	0.000
327.74	32.603	10.264	37.75	0.31	11.276	7.786	-323.25		-0.89	0.000
328.02	32.638	9.820	37.71	0.31	11.465	7.969	-293.94		-0.89	0.000
328.29	32.686	9.363	37.66	0.31	11.620	8.147	-270.89		-0.89	0.000
328.57	32.731	8.882	37.62	0.31	11.788	8.327	-268.02		-0.89	0.000
328.84	32.773	8.365	37.58	0.31	11.950	8.498	-270.77		-0.89	0.000
329.12	32.800	7.837	37.55	0.31	12.107	8.665	-277.19		-0.89	0.000
329.39	32.837	7.284	37.51	0.31	12.236	8.823	-306.06		-0.89	0.000
329.67	32.872	6.719	37.48	0.31	12.384	8.968	-331.91		-0.89	0.000
329.95	32.905	6.118	37.44	0.31	12.504	9.110	-400.89		-0.89	0.000
330.22	32.923	5.505	37.43	0.31	12.559	9.238	-435.30		-0.89	0.000
330.49	32.950	4.892	37.40	0.31	12.671	9.301	-512.17		-0.89	0.000
330.77	32.972	4.267	37.38	0.31	12.745	9.411	-558.92		-0.89	0.000
331.04	32.987	3.618	37.36	0.31	12.838	9.509	-618.42		-0.89	0.000
331.31	32.999	2.969	37.35	0.31	12.903	9.590	-630.47		-0.89	0.000
331.58	33.013	2.296	37.34	0.31	12.954	9.659	-638.89		-0.89	0.000
331.85	33.023	1.647	37.33	0.31	12.981	9.721	-635.94		-0.89	0.000
332.12	33.024	0.974	37.33	0.31	13.021	9.762	-622.59		-0.89	0.000
332.40	33.028	0.313	37.32	0.31	13.038	9.798	-602.62		-0.89	0.000
332.67	33.028	-0.349	37.32	0.31	13.035	9.816	-534.62		-0.89	0.000
332.94	33.028	-1.022	37.32	0.31	13.041	9.825	-494.87		-0.89	0.000
333.22	33.028	-1.695	37.32	0.31	13.041	9.826	-442.49		-0.89	0.000
333.49	33.028	-2.344	37.32	0.31	13.039	9.826	-428.01		-0.89	0.000
333.77	33.013	-3.017	37.34	0.31	13.039	9.823	-387.78		-0.89	0.000
334.04	33.004	-3.666	37.35	0.31	13.014	9.816	-342.02		-0.89	0.000
334.32	32.982	-4.303	37.37	0.31	12.992	9.812	-313.99		-0.89	0.000
334.60	32.959	-4.940	37.39	0.31	12.968	9.801	-243.36		-0.89	0.000
334.87	32.931	-5.577	37.42	0.31	12.920	9.780	-199.29		-0.89	0.000
335.15	32.912	-6.178	37.44	0.31	12.853	9.749	-108.48		-0.89	0.000
335.42	32.878	-6.767	37.47	0.31	12.838	9.686	-73.89		-0.89	0.000
335.70	32.844	-7.332	37.51	0.31	12.819	9.629	-39.26		-0.89	0.000
335.97	32.805	-7.885	37.54	0.31	12.797	9.589	-37.58		-0.89	0.000
336.25	32.777	-8.425	37.57	0.31	12.780	9.560	-24.55		-0.89	0.000
336.53	32.733	-8.930	37.62	0.31	12.746	9.548	-8.81		-0.89	0.000
336.80	32.688	-9.411	37.66	0.31	12.650	9.512	19.71		-0.89	0.000
337.07	32.638	-9.868	37.71	0.31	12.555	9.454	45.40		-0.89	0.000
337.33	32.606	-10.288	37.74	0.31	12.441	9.358	64.91		-0.89	0.000
337.61	32.554	-10.685	37.80	0.31	12.305	9.235	50.46		-0.89	0.000
337.88	32.499	-11.046	37.85	0.31	12.242	9.091	-15.28		-0.89	0.000
338.15	32.462	-11.406	37.89	0.31	12.089	8.931	-63.76		-0.89	0.000
338.43	32.405	-11.707	37.94	0.31	11.944	8.768	-147.54		-0.89	0.000
338.71	32.346	-11.995	38.00	0.31	11.793	8.594	-168.59		-0.89	0.000
338.98	32.285	-12.248	38.07	0.31	11.649	8.424	-183.78		-0.89	0.000
339.26	32.242	-12.464	38.11	0.31	11.491	8.257	-196.25		-0.89	0.000
339.54	32.181	-12.656	38.17	0.31	11.341	8.172	-227.95		-0.89	0.000
339.81	32.117	-12.800	38.23	0.31	11.183	8.002	-249.06		-0.89	0.000
340.10	32.054	-12.921	38.30	0.31	11.031	7.833	-288.47		-0.89	0.000
340.37	32.010	-13.005	38.34	0.31	10.884	7.664	-279.90		-0.89	0.000
340.65	31.945	-13.053	38.41	0.31	10.737	7.497	-266.22		-0.89	0.000
340.92	31.878	-13.065	38.47	0.31	10.601	7.339	-216.92		-0.89	0.000
341.20	31.813	-13.041	38.54	0.32	10.528	7.184	-198.26		-0.89	0.000
341.48	31.769	-12.981	38.58	0.32	10.403	7.035	-190.81		-0.89	0.000
341.75	31.705	-12.885	38.64	0.32	10.271	6.893	-188.56		-0.89	0.000
342.04	31.641	-12.752	38.71	0.32	10.080	6.761	-156.01		-0.89	0.000
342.32	31.578	-12.584	38.77	0.32	9.921	6.606	-126.82		-0.89	0.000
342.59	31.536	-12.380	38.81	0.32	9.762	6.450	-69.62		-0.89	0.000
342.87	31.474	-12.139	38.88	0.32	9.617	6.306	-54.73		-0.89	0.000
343.14	31.415	-11.875	38.93	0.32	9.501	6.168	-34.21		-0.89	0.000
343.41	31.356	-11.575	38.99	0.32	9.388	6.105	-23.36		-0.89	0.000
343.68	31.318	-11.250	39.03	0.32	9.286	5.995	-14.75		-0.89	0.000
343.96	31.264	-10.901	39.09	0.32	9.202	5.892	-23.56		-0.89	0.000
344.23	31.209	-10.517	39.14	0.32	9.155	5.797	-21.43		-0.89	0.000
344.50	31.158	-10.108	39.19	0.32	9.078	5.715	-11.89		-0.89	0.000
344.77	31.126	-9.663	39.22	0.32	9.013	5.638	6.17		-0.89	0.000
345.04	31.078	-9.195	39.27	0.32	8.961	5.570	7.94		-0.89	0.000
345.31	31.033	-8.726	39.32	0.32	8.908	5.509	0.67		-0.89	0.000
345.58	31.005	-8.209	39.34	0.32	8.858	5.457	1.98		-0.89	0.000
345.86	30.967	-7.680	39.38	0.32	8.825	5.429	-20.75		-0.89	0.000
346.13	30.928	-7.151	39.42	0.32	8.784	5.388	-51.16		-0.89	0.000
346.41	30.905	-6.562	39.44	0.32	8.760	5.354	-117.95		-0.89	0.000
346.68	30.874	-5.962	39.48	0.32	8.751	5.321	-130.58		-0.89	0.000
346.96	30.849	-5.349	39.50	0.32	8.727	5.296	-115.01		-0.89	0.000
347.23	30.823	-4.724	39.53	0.32	8.709	5.274	-96.75		-0.89	0.000
347.50	30.809	-4.087	39.54	0.32	8.704	5.259	-74.30		-0.89	0.000
347.78	30.792	-3.450	39.56	0.32	8.696	5.244	-66.03		-0.89	0.000
348.05	30.776	-2.788	39.57	0.32	8.684	5.236	-85.27		-0.89	0.000
348.32	30.767	-2.115	39.58	0.32	8.685	5.231	-101.75		-0.89	0.000
348.60	30.759	-1.454	39.59	0.32	8.691	5.229	-114.87		-0.89	0.000
348.86	30.755	-0.805	39.59	0.32	8.693	5.228	-108.69		-0.89	0.000
349.13	30.753	-0.120	39.60	0.32	8.681	5.230	-82.06		-0.89	0.000
349.40	30.753	0.517	39.60	0.32	8.700	5.232	-70.97		-0.89	0.000
349.67	30.753	1.178	39.60	0.32	8.697	5.236	-44.07		-0.89	0.000
349.93	30.753	1.839	39.60	0.32	8.706	5.244	-37.23		-0.89	0.000
350.20	30.753	2.488	39.60	0.32	8.710	5.250	-55.09		-0.89	0.000
350.46	30.765	3.113	39.58	0.32	8.712	5.255	-82.54		-0.89	0.000
350.74	30.786	3.750	39.56	0.32	8.710	5.257	-141.06		-0.89	0.000
351.01	30.800	4.375	39.55	0.32	8.715	5.259	-156.75		-0.89	0.000
351.29	30.823	5.012	39.53	0.32	8.717	5.262	-141.22		-0.89	0.000
351.56	30.850	5.613	39.50	0.32	8.719	5.265	-121.92		-0.89	0.000
351.83	30.871	6.226	39.48	0.32	8.726	5.266	-50.65		-0.89	0.000
352.10	30.904	6.803	39.45	0.32	8.726	5.271	-15.28		-0.89	0.000
352.37	30.941	7.368	39.41	0.32	8.727	5.275	0.90		-0.89	0.000
352.63	30.964	7.909	39.39	0.32	8.732	5.278	-12.01		-0.89	0.000
352.91	31.004	8.425	39.35	0.32	8.751	5.283	-36.40		-0.89	0.000
353.18	31.049	8.918	39.30	0.32	8.750	5.287	-44.02		-0.89	0.000
353.45	31.095	9.387	39.26	0.32	8.770	5.304	-45.38		-0.89	0.000
353.72	31.127	9.844	39.22	0.32	8.806	5.328	-43.40		-0.89	0.000
353.99	31.177	10.264	39.17	0.32	8.833	5.357	-41.43		-0.89	0.000
354.27	31.230	10.673	39.12	0.32	8.866	5.392	-45.52		-0.89	0.000
354.54	31.265	11.046	39.08	0.32	8.905	5.427	-63.61		-0.89	0.000
354.81	31.321	11.382	39.03	0.32	8.936	5.462	-78.17		-0.89	0.000
355.09	31.380	11.707	38.97	0.32	8.966	5.503	-100.40		-0.89	0.000
355.36	31.438	11.983	38.91	0.32	8.998	5.544	-87.84		-0.89	0.000
355.63	31.480	12.236	38.87	0.32	9.020	5.564	-44.20		-0.89	0.000
355.90	31.541	12.452	38.81	0.32	9.051	5.605	-18.61		-0.89	0.000
356.17	31.603	12.644	38.75	0.32	9.100	5.646	55.88		-0.89	0.000
356.44	31.646	12.788	38.70	0.32	9.149	5.690	93.70		-0.89	0.000
356.71	31.710	12.909	38.64	0.32	9.184	5.742	162.17		-0.89	0.000
356.98	31.776	12.993	38.57	0.32	9.233	5.798	182.33		-0.89	0.000
357.25	31.818	13.041	38.53	0.32	9.286	5.851	191.81		-0.89	0.000
357.52	31.883	13.065	38.47	0.31	9.315	5.915	174.11		-0.89	0.000
357.79	31.949	13.041	38.40	0.31	9.393	5.985	140.09		-0.89	0.000
358.06	31.992	12.993	38.36	0.31	9.492	6.022	125.50		-0.89	0.000
358.33	32.056	12.909	38.29	0.31	9.595	6.115	102.70		-0.89	0.000
358.60	32.121	12.788	38.23	0.31	9.714	6.219	94.79		-0.89	0.000
358.88	32.185	12.644	38.17	0.31	9.864	6.336	80.56		-0.89	0.000
359.14	32.226	12.452	38.12	0.31	9.996	6.472	76.15		-0.89	0.000
359.41	32.287	12.236	38.06	0.31	10.151	6.622	60.66		-0.89	0.000
359.69	32.349	11.995	38.00	0.31	10.244	6.781	28.12		-0.89	0.000
359.96	32.388	11.707	37.96	0.31	10.406	6.950	-56.59		-0.89	0.000
360.23	32.446	11.406	37.90	0.31	10.571	7.040	-86.00		-0.89	0.000
360.50	32.503	11.058	37.85	0.31	10.755	7.220	-100.00		-0.89	0.000
360.78	32.540	10.685	37.81	0.31	10.929	7.403	-97.76		-0.89	0.000
361.05	32.592	10.288	37.76	0.31	11.088	7.587	-102.21		-0.89	0.000
361.33	32.642	9.856	37.71	0.31	11.261	7.765	-119.00		-0.89	0.000
361.60	32.688	9.399	37.66	0.31	11.420	7.943	-187.50		-0.89	0.000
361.88	32.720	8.918	37.63	0.31	11.585	8.117	-230.23		-0.89	0.000
362.15	32.764	8.401	37.59	0.31	11.747	8.285	-297.53		-0.89	0.000
362.42	32.804	7.873	37.55	0.31	11.820	8.448	-305.72		-0.89	0.000
362.70	32.841	7.332	37.51	0.31	11.965	8.611	-252.23		-0.89	0.000
362.97	32.865	6.767	37.48	0.31	12.098	8.759	-207.11		-0.89	0.000
363.25	32.896	6.178	37.45	0.31	12.227	8.897	-112.41		-0.89	0.000
363.53	32.927	5.577	37.42	0.31	12.342	8.964	-40.90		-0.89	0.000
363.80	32.951	4.952	37.40	0.31	12.442	9.085	-8.49		-0.89	0.000
364.07	32.968	4.315	37.38	0.31	12.536	9.199	71.31		-0.89	0.000
364.34	32.986	3.678	37.36	0.31	12.602	9.298	120.58		-0.89	0.000
364.62	33.003	3.029	37.35	0.31	12.682	9.387	227.27		-0.89	0.000
364.89	33.010	2.368	37.34	0.31	12.701	9.462	272.55		-0.89	0.000
365.16	33.019	1.707	37.33	0.31	12.737	9.521	343.85		-0.89	0.000
365.43	33.024	1.046	37.33	0.31	12.788	9.566	368.18		-0.89	0.000
365.70	33.026	0.385	37.32	0.31	12.802	9.597	341.45		-0.89	0.000
365.97	33.028	-0.276	37.32	0.31	12.815	9.608	303.07		-0.89	0.000
366.24	33.028	-0.938	37.32	0.31	12.806	9.624	205.63		-0.89	0.000
366.51	33.028	-1.599	37.32	0.31	12.812	9.630	162.33		-0.89	0.000
366.78	33.028	-2.248	37.32	0.31	12.818	9.632	74.65		-0.89	0.000
367.05	33.018	-2.909	37.33	0.31	12.806	9.627	28.31		-0.89	0.000
367.32	33.001	-3.546	37.35	0.31	12.808	9.625	-9.38		-0.89	0.000
367.59	32.990	-4.183	37.36	0.31	12.792	9.617	-73.06		-0.89	0.000
367.87	32.964	-4.808	37.39	0.31	12.758	9.607	-131.30		-0.89	0.000
368.15	32.940	-5.433	37.41	0.31	12.710	9.588	-167.86		-0.89	0.000
368.42	32.909	-6.046	37.44	0.31	12.665	9.557	-235.46		-0.89	0.000
368.70	32.887	-6.647	37.46	0.31	12.614	9.530	-258.63		-0.89	0.000
368.98	32.854	-7.224	37.50	0.31	12.602	9.463	-275.42		-0.89	0.000
369.26	32.815	-7.776	37.53	0.31	12.568	9.415	-279.60		-0.89	0.000
369.54	32.776	-8.317	37.57	0.31	12.556	9.379	-311.49		-0.89	0.000
369.81	32.747	-8.834	37.60	0.31	12.528	9.356	-339.13		-0.89	0.000
370.09	32.700	-9.327	37.65	0.31	12.470	9.324	-394.04		-0.89	0.000
370.37	32.653	-9.796	37.70	0.31	12.380	9.271	-416.57		-0.89	0.000
370.65	32.603	-10.228	37.75	0.31	12.268	9.169	-440.91		-0.89	0.000
370.92	32.568	-10.649	37.78	0.31	12.138	9.047	-442.35		-0.89	0.000
371.20	32.513	-11.034	37.84	0.31	12.004	8.902	-431.40		-0.89	0.000
371.47	32.458	-11.370	37.89	0.31	11.859	8.741	-415.27		-0.89	0.000
371.75	32.400	-11.695	37.95	0.31	11.704	8.578	-394.41		-0.89	0.000
372.03	32.360	-11.983	37.99	0.31	11.558	8.406	-389.44		-0.89	0.000
372.31	32.300	-12.236	38.05	0.31	11.427	8.238	-391.91		-0.89	0.000
372.59	32.237	-12.452	38.11	0.31	11.262	8.066	-400.42		-0.89	0.000
372.86	32.176	-12.644	38.17	0.31	11.109	7.988	-404.03		-0.89	0.000
373.14	32.112	-12.800	38.24	0.31	10.958	7.815	-409.53		-0.89	0.000
373.42	32.069	-12.921	38.28	0.31	10.812	7.648	-401.70		-0.89	0.000
373.70	32.005	-13.005	38.34	0.31	10.740	7.483	-392.37		-0.89	0.000
373.98	31.938	-13.053	38.41	0.31	10.599	7.318	-382.78		-0.89	0.000
374.25	31.873	-13.065	38.48	0.31	10.459	7.163	-341.92		-0.89	0.000
374.53	31.829	-13.041	38.52	0.31	10.326	7.014	-312.47		-0.89	0.000
374.81	31.764	-12.981	38.59	0.32	10.206	6.871	-244.29		-0.89	0.000
375.08	31.700	-12.885	38.65	0.32	10.083	6.735	-216.91		-0.89	0.000
375.36	31.636	-12.752	38.71	0.32	9.895	6.607	-177.26		-0.89	0.000
375.63	31.594	-12.584	38.76	0.32	9.737	6.459	-166.92		-0.89	0.000
375.91	31.532	-12.392	38.82	0.32	9.592	6.309	-153.33		-0.89	0.000
376.18	31.471	-12.163	38.88	0.32	9.455	6.170	-149.79		-0.89	0.000
376.46	31.410	-11.887	38.94	0.32	9.343	6.101	-141.63		-0.89	0.000
376.73	31.372	-11.599	38.98	0.32	9.291	5.977	-128.66		-0.89	0.000
377.02	31.314	-11.274	39.04	0.32	9.181	5.870	-131.52		-0.89	0.000
377.29	31.259	-10.913	39.09	0.32	9.087	5.769	-152.44		-0.89	0.000
377.57	31.205	-10.517	39.14	0.32	9.013	5.674	-163.63		-0.89	0.000
377.84	31.172	-10.096	39.18	0.32	8.945	5.597	-165.41		-0.89	0.000
378.12	31.122	-9.651	39.23	0.32	8.876	5.525	-143.94		-0.89	0.000
378.39	31.074	-9.195	39.28	0.32	8.827	5.457	-65.58		-0.89	0.000
378.67	31.045	-8.690	39.31	0.32	8.779	5.399	-21.39		-0.89	0.000
378.94	31.003	-8.173	39.35	0.32	8.731	5.349	53.74		-0.89	0.000
379.21	30.962	-7.632	39.39	0.32	8.699	5.301	66.28		-0.89	0.000
379.48	30.926	-7.079	39.42	0.32	8.672	5.263	59.38		-0.89	0.000
379.75	30.903	-6.514	39.45	0.32	8.656	5.248	49.46		-0.89	0.000
380.02	30.872	-5.925	39.48	0.32	8.630	5.219	55.56		-0.89	0.000
380.29	30.846	-5.325	39.50	0.32	8.617	5.195	66.44		-0.89	0.000
380.56	30.828	-4.712	39.52	0.32	8.592	5.177	98.40		-0.89	0.000
380.84	30.810	-4.087	39.54	0.32	8.585	5.157	118.42		-0.89	0.000
381.11	30.792	-3.450	39.56	0.32	8.574	5.144	149.07		-0.89	0.000
381.38	30.774	-2.788	39.58	0.32	8.572	5.135	167.58		-0.89	0.000
381.65	30.771	-2.127	39.58	0.32	8.581	5.129	209.94		-0.89	0.000
381.92	30.760	-1.466	39.59	0.32	8.563	5.127	234.19		-0.89	0.000
382.19	30.755	-0.805	39.59	0.32	8.577	5.127	243.62		-0.89	0.000
382.46	30.754	-0.144	39.60	0.32	8.577	5.128	241.39		-0.89	0.000
382.72	30.754	0.505	39.60	0.32	8.583	5.130	243.51		-0.89	0.000
382.99	30.754	1.166	39.60	0.32	8.584	5.133	241.27		-0.89	0.000
383.25	30.754	1.815	39.60	0.32	8.590	5.138	231.62		-0.89	0.000
383.52	30.754	2.452	39.60	0.32	8.593	5.146	216.74		-0.89	0.000
383.79	30.764	3.089	39.59	0.32	8.599	5.154	165.84		-0.89	0.000
384.06	30.780	3.726	39.57	0.32	8.599	5.156	126.99		-0.89	0.000
384.33	30.803	4.363	39.55	0.32	8.603	5.160	33.86		-0.89	0.000
384.60	30.827	4.988	39.52	0.32	8.602	5.163	-17.03		-0.89	0.000
384.87	30.844	5.589	39.51	0.32	8.603	5.167	-79.60		-0.89	0.000
385.14	30.874	6.178	39.48	0.32	8.608	5.171	-88.03		-0.89	0.000
385.42	30.908	6.755	39.44	0.32	8.606	5.177	-98.18		-0.89	0.000
385.69	30.931	7.320	39.42	0.32	8.605	5.179	-115.86		-0.89	0.000
385.96	30.968	7.885	39.38	0.32	8.611	5.182	-190.97		-0.89	0.000
386.24	31.009	8.401	39.34	0.32	8.623	5.188	-235.79		-0.89	0.000
386.51	31.053	8.906	39.30	0.32	8.633	5.193	-319.48		-0.89	0.000
386.78	31.082	9.387	39.27	0.32	8.650	5.209	-336.15		-0.89	0.000
387.05	31.133	9.844	39.22	0.32	8.684	5.233	-334.25		-0.89	0.000
387.33	31.181	10.264	39.17	0.32	8.710	5.264	-317.67		-0.89	0.000
387.60	31.217	10.673	39.13	0.32	8.745	5.297	-279.28		-0.89	0.000
387.87	31.271	11.046	39.08	0.32	8.774	5.331	-269.02		-0.89	0.000
388.15	31.327	11.382	39.02	0.32	8.793	5.367	-283.99		-0.89	0.000
388.42	31.385	11.695	38.97	0.32	8.820	5.405	-292.33		-0.89	0.000
388.69	31.424	11.983	38.93	0.32	8.859	5.445	-277.67		-0.89	0.000
388.97	31.486	12.236	38.86	0.32	8.887	5.488	-248.42		-0.89	0.000
389.24	31.546	12.452	38.80	0.32	8.922	5.509	-172.55		-0.89	0.000
389.51	31.587	12.644	38.76	0.32	8.971	5.549	-137.36		-0.89	0.000
389.79	31.653	12.788	38.70	0.32	9.012	5.592	-91.85		-0.89	0.000
390.06	31.715	12.909	38.63	0.32	9.055	5.642	-79.92		-0.89	0.000
390.33	31.782	12.993	38.57	0.32	9.104	5.692	-94.43		-0.89	0.000
390.60	31.824	13.041	38.53	0.31	9.157	5.747	-109.30		-0.89	0.000
390.87	31.890	13.065	38.46	0.31	9.186	5.808	-123.89		-0.89	0.000
391.15	31.955	13.041	38.39	0.31	9.258	5.877	-113.33		-0.89	0.000
391.42	31.999	12.993	38.35	0.31	9.358	5.954	-93.98		-0.89	0.000
391.70	32.064	12.897	38.29	0.31	9.455	6.049	-95.15		-0.89	0.000
391.97	32.127	12.776	38.22	0.31	9.573	6.101	-101.38		-0.89	0.000
392.24	32.190	12.620	38.16	0.31	9.705	6.214	-103.16		-0.89	0.000
392.51	32.232	12.428	38.12	0.31	9.857	6.342	-90.68		-0.89	0.000
392.78	32.294	12.212	38.06	0.31	9.994	6.484	-80.79		-0.89	0.000
393.06	32.355	11.959	37.99	0.31	10.165	6.635	-93.72		-0.89	0.000
393.33	32.392	11.671	37.96	0.31	10.249	6.798	-110.71		-0.89	0.000
393.61	32.450	11.346	37.90	0.31	10.409	6.971	-156.92		-0.89	0.000
393.88	32.506	11.010	37.84	0.31	10.586	7.149	-171.74		-0.89	0.000
394.16	32.560	10.625	37.79	0.31	10.733	7.328	-202.93		-0.89	0.000
394.43	32.596	10.216	37.75	0.31	10.901	7.506	-219.99		-0.89	0.000
394.71	32.646	9.784	37.70	0.31	11.066	7.680	-261.21		-0.89	0.000
394.98	32.692	9.327	37.66	0.31	11.234	7.768	-290.11		-0.89	0.000
395.26	32.738	8.834	37.61	0.31	11.394	7.943	-347.24		-0.89	0.000
395.53	32.768	8.329	37.58	0.31	11.541	8.106	-373.12		-0.89	0.000
395.81	32.808	7.788	37.54	0.31	11.684	8.273	-398.85		-0.89	0.000
396.08	32.845	7.236	37.51	0.31	11.765	8.426	-384.56		-0.89	0.000
396.36	32.878	6.671	37.47	0.31	11.896	8.574	-321.94		-0.89	0.000
396.63	32.900	6.082	37.45	0.31	12.008	8.714	-258.88		-0.89	0.000
396.91	32.928	5.469	37.42	0.31	12.129	8.844	-248.32		-0.89	0.000
397.18	32.955	4.844	37.39	0.31	12.247	8.964	-267.67		-0.89	0.000
397.46	32.964	4.207	37.39	0.31	12.306	9.063	-280.11		-0.89	0.000
397.73	32.985	3.558	37.37	0.31	12.399	9.158	-305.37		-0.89	0.000
398.00	33.003	2.909	37.35	0.31	12.464	9.195	-319.60		-0.89	0.000
398.27	33.017	2.248	37.33	0.31	12.516	9.270	-339.77		-0.89	0.000
398.54	33.019	1.587	37.33	0.31	12.538	9.334	-341.53		-0.89	0.000
398.82	33.027	0.913	37.32	0.31	12.575	9.378	-329.19		-0.89	0.000
399.09	33.028	0.252	37.32	0.31	12.569	9.418	-314.78		-0.89	0.000
399.36	33.028	-0.409	37.32	0.31	12.582	9.434	-280.12		-0.89	0.000
399.63	33.028	-1.070	37.32	0.31	12.596	9.442	-268.26		-0.89	0.000
399.90	33.028	-1.743	37.32	0.31	12.589	9.443	-252.95		-0.89	0.000
400.17	33.028	-2.392	37.32	0.31	12.593	9.440	-239.68		-0.89	0.000
400.45	33.019	-3.053	37.33	0.31	12.595	9.439	-210.54		-0.89	0.000
400.72	33.003	-3.690	37.35	0.31	12.556	9.432	-193.13		-0.89	0.000
401.00	32.978	-4.339	37.37	0.31	12.562	9.429	-167.15		-0.89	0.000
401.28	32.955	-4.976	37.39	0.31	12.518	9.420	-160.52		-0.89	0.000
401.56	32.937	-5.601	37.41	0.31	12.481	9.407	-159.97		-0.89	0.000
401.83	32.905	-6.214	37.44	0.31	12.440	9.369	-157.28		-0.89	0.000
402.11	32.872	-6.803	37.48	0.31	12.399	9.304	-158.08		-0.89	0.000
402.39	32.838	-7.368	37.51	0.31	12.348	9.239	-160.76		-0.89	0.000
402.67	32.813	-7.921	37.54	0.31	12.338	9.200	-162.92		-0.89	0.000
402.94	32.772	-8.462	37.58	0.31	12.331	9.167	-160.91		-0.89	0.000
403.22	32.726	-8.966	37.62	0.31	12.290	9.137	-173.55		-0.89	0.000
403.49	32.681	-9.447	37.67	0.31	12.190	9.102	-183.15		-0.89	0.000
403.77	32.647	-9.904	37.70	0.31	12.084	9.026	-199.12		-0.89	0.000
404.04	32.599	-10.337	37.75	0.31	11.970	8.917	-187.55		-0.89	0.000
404.32	32.545	-10.733	37.81	0.31	11.899	8.856	-177.34		-0.89	0.000
404.60	32.491	-11.106	37.86	0.31	11.767	8.708	-168.02		-0.89	0.000
404.88	32.453	-11.454	37.90	0.31	11.629	8.547	-169.21		-0.89	0.000
405.16	32.395	-11.767	37.96	0.31	11.475	8.386	-211.14		-0.89	0.000
405.44	32.336	-12.043	38.01	0.31	11.325	8.217	-233.48		-0.89	0.000
405.72	32.274	-12.296	38.08	0.31	11.184	8.047	-232.31		-0.89	0.000
405.99	32.233	-12.512	38.12	0.31	11.042	7.882	-201.96		-0.89	0.000
406.27	32.169	-12.692	38.18	0.31	10.878	7.715	-105.63		-0.89	0.000
406.54	32.106	-12.837	38.24	0.31	10.739	7.549	-56.64		-0.89	0.000
406.82	32.042	-12.945	38.31	0.31	10.591	7.381	-3.46		-0.89	0.000
407.09	32.000	-13.017	38.35	0.31	10.469	7.219	-6.82		-0.89	0.000
407.37	31.933	-13.053	38.42	0.31	10.320	7.065	-58.06		-0.89	0.000
407.64	31.869	-13.053	38.48	0.31	10.194	6.919	-100.34		-0.89	0.000
407.92	31.803	-13.029	38.55	0.32	10.139	6.775	-168.35		-0.89	0.000
408.20	31.760	-12.957	38.59	0.32	10.015	6.706	-153.28		-0.89	0.000
408.48	31.696	-12.861	38.65	0.32	9.893	6.577	-130.26		-0.89	0.000
408.76	31.631	-12.716	38.72	0.32	9.703	6.452	-96.21		-0.89	0.000
409.03	31.569	-12.548	38.78	0.32	9.566	6.312	-84.50		-0.89	0.000
409.30	31.527	-12.332	38.82	0.32	9.419	6.166	-57.73		-0.89	0.000
409.58	31.464	-12.103	38.89	0.32	9.285	6.028	-36.41		-0.89	0.000
409.85	31.405	-11.827	38.94	0.32	9.183	5.899	6.79		-0.89	0.000
410.12	31.347	-11.526	39.00	0.32	9.076	5.785	23.46		-0.89	0.000
410.39	31.309	-11.202	39.04	0.32	8.985	5.687	81.81		-0.89	0.000
410.66	31.254	-10.841	39.10	0.32	8.941	5.591	116.50		-0.89	0.000
410.94	31.201	-10.457	39.15	0.32	8.871	5.508	165.13		-0.89	0.000
411.21	31.167	-10.036	39.18	0.32	8.807	5.470	172.94		-0.89	0.000
411.49	31.118	-9.591	39.23	0.32	8.751	5.399	130.78		-0.89	0.000
411.76	31.073	-9.123	39.28	0.32	8.705	5.337	89.20		-0.89	0.000
412.03	31.028	-8.618	39.32	0.32	8.650	5.280	-2.30		-0.89	0.000
412.30	31.000	-8.113	39.35	0.32	8.619	5.230	-38.69		-0.89	0.000
412.58	30.962	-7.572	39.39	0.32	8.578	5.184	-92.58		-0.89	0.000
412.85	30.926	-7.019	39.42	0.32	8.548	5.147	-105.69		-0.89	0.000
413.13	30.903	-6.442	39.45	0.32	8.541	5.116	-110.87		-0.89	0.000
413.40	30.872	-5.841	39.48	0.32	8.514	5.090	-107.14		-0.89	0.000
413.68	30.844	-5.228	39.51	0.32	8.498	5.071	-86.11		-0.89	0.000
413.95	30.821	-4.603	39.53	0.32	8.483	5.062	-74.86		-0.89	0.000
414.22	30.806	-3.966	39.54	0.32	8.473	5.047	-36.75		-0.89	0.000
414.50	30.790	-3.317	39.56	0.32	8.458	5.034	-13.23		-0.89	0.000
414.76	30.774	-2.668	39.58	0.32	8.463	5.023	23.50		-0.89	0.000
415.02	30.771	-2.007	39.58	0.32	8.461	5.019	25.36		-0.89	0.000
415.29	30.763	-1.346	39.59	0.32	8.453	5.018	-4.92		-0.89	0.000
415.56	30.755	-0.709	39.59	0.32	8.461	5.018	-16.88		-0.89	0.000
415.83	30.755	-0.048	39.59	0.32	8.469	5.020	-21.52		-0.89	0.000
416.09	30.755	0.601	39.59	0.32	8.468	5.022	-13.21		-0.89	0.000
416.35	30.755	1.250	39.59	0.32	8.475	5.027	-19.62		-0.89	0.000
416.62	30.755	1.899	39.59	0.32	8.487	5.030	-43.90		-0.89	0.000
416.89	30.756	2.536	39.59	0.32	8.480	5.036	-128.11		-0.89	0.000
417.16	30.772	3.173	39.58	0.32	8.487	5.043	-167.51		-0.89	0.000
417.43	30.785	3.810	39.57	0.32	8.487	5.046	-203.42		-0.89	0.000
417.70	30.806	4.435	39.54	0.32	8.484	5.049	-205.10		-0.89	0.000
417.97	30.832	5.060	39.52	0.32	8.490	5.053	-181.24		-0.89	0.000
418.25	30.849	5.673	39.50	0.32	8.494	5.055	-161.78		-0.89	0.000
418.52	30.880	6.274	39.47	0.32	8.498	5.057	-138.83		-0.89	0.000
418.79	30.913	6.851	39.44	0.32	8.497	5.060	-132.06		-0.89	0.000
419.07	30.949	7.416	39.40	0.32	8.493	5.061	-124.71		-0.89	0.000
419.34	30.974	7.957	39.38	0.32	8.505	5.065	-120.01		-0.89	0.000
419.61	31.018	8.486	39.33	0.32	8.514	5.067	-111.30		-0.89	0.000
419.89	31.060	8.978	39.29	0.32	8.528	5.082	-109.11		-0.89	0.000
420.16	31.091	9.459	39.26	0.32	8.542	5.101	-124.48		-0.89	0.000
420.43	31.140	9.916	39.21	0.32	8.575	5.123	-125.02		-0.89	0.000
420.70	31.191	10.337	39.16	0.32	8.603	5.138	-99.28		-0.89	0.000
420.98	31.244	10.733	39.11	0.32	8.630	5.168	-78.82		-0.89	0.000
421.25	31.278	11.094	39.07	0.32	8.666	5.200	-34.57		-0.89	0.000
421.51	31.336	11.442	39.01	0.32	8.687	5.237	-17.53		-0.89	0.000
421.78	31.392	11.743	38.96	0.32	8.716	5.276	2.80		-0.89	0.000
422.05	31.433	12.019	38.92	0.32	8.745	5.310	16.15		-0.89	0.000
422.31	31.494	12.260	38.86	0.32	8.777	5.348	39.97		-0.89	0.000
422.58	31.555	12.464	38.79	0.32	8.819	5.387	44.98		-0.89	0.000
422.85	31.596	12.644	38.75	0.32	8.846	5.406	47.44		-0.89	0.000
423.12	31.660	12.800	38.69	0.32	8.894	5.450	32.62		-0.89	0.000
423.38	31.726	12.909	38.62	0.32	8.912	5.497	7.28		-0.89	0.000
423.66	31.768	12.993	38.58	0.32	8.951	5.545	-78.22		-0.89	0.000
423.93	31.833	13.041	38.52	0.31	9.014	5.598	-127.20		-0.89	0.000
424.20	31.900	13.065	38.45	0.31	9.058	5.655	-220.28		-0.89	0.000
424.47	31.942	13.041	38.41	0.31	9.136	5.718	-264.52		-0.89	0.000
424.75	32.008	12.993	38.34	0.31	9.228	5.790	-330.53		-0.89	0.000
425.03	32.072	12.909	38.28	0.31	9.333	5.883	-391.01		-0.89	0.000
425.30	32.137	12.776	38.21	0.31	9.439	5.983	-400.70		-0.89	0.000
425.58	32.178	12.620	38.17	0.31	9.570	6.037	-388.48		-0.89	0.000
425.85	32.241	12.428	38.11	0.31	9.705	6.164	-368.85		-0.89	0.000
426.12	32.303	12.212	38.05	0.31	9.777	6.297	-311.57		-0.89	0.000
426.39	32.344	11.959	38.01	0.31	9.944	6.446	-279.38		-0.89	0.000
426.67	32.403	11.671	37.95	0.31	10.089	6.605	-209.16		-0.89	0.000
426.95	32.460	11.346	37.89	0.31	10.258	6.772	-167.84		-0.89	0.000
427.22	32.515	10.998	37.83	0.31	10.420	6.944	-73.43		-0.89	0.000
427.50	32.551	10.613	37.80	0.31	10.581	7.118	-31.85		-0.89	0.000
427.76	32.604	10.204	37.75	0.31	10.737	7.289	41.83		-0.89	0.000
428.04	32.654	9.772	37.70	0.31	10.889	7.456	71.69		-0.89	0.000
428.31	32.700	9.327	37.65	0.31	11.049	7.543	120.82		-0.89	0.000
428.58	32.732	8.834	37.62	0.31	11.128	7.714	145.98		-0.89	0.000
428.86	32.773	8.329	37.58	0.31	11.287	7.879	202.57		-0.89	0.000
429.13	32.815	7.800	37.53	0.31	11.431	8.044	232.65		-0.89	0.000
429.40	32.838	7.248	37.51	0.31	11.574	8.198	273.15		-0.89	0.000
429.68	32.873	6.683	37.48	0.31	11.704	8.348	265.95		-0.89	0.000
429.95	32.906	6.106	37.44	0.31	11.822	8.485	220.49		-0.89	0.000
430.22	32.933	5.493	37.42	0.31	11.931	8.615	199.12		-0.89	0.000
430.50	32.951	4.880	37.40	0.31	12.033	8.731	172.02		-0.89	0.000
430.77	32.974	4.255	37.38	0.31	12.118	8.836	161.73		-0.89	0.000
431.04	32.994	3.606	37.36	0.31	12.159	8.883	153.79		-0.89	0.000
431.31	33.001	2.969	37.35	0.31	12.227	8.967	146.88		-0.89	0.000
431.59	33.015	2.308	37.33	0.31	12.294	9.041	124.89		-0.89	0.000
431.85	33.026	1.647	37.32	0.31	12.311	9.103	114.58		-0.89	0.000
432.12	33.027	0.962	37.32	0.31	12.345	9.151	96.83		-0.89	0.000
432.39	33.029	0.313	37.32	0.31	12.357	9.183	111.59		-0.89	0.000
432.67	33.031	-0.349	37.32	0.31	12.378	9.203	153.75		-0.89	0.000
432.93	33.031	-0.998	37.32	0.31	12.382	9.213	164.50		-0.89	0.000
433.20	33.031	-1.671	37.32	0.31	12.371	9.217	136.63		-0.89	0.000
433.47	33.031	-2.320	37.32	0.31	12.383	9.217	106.60		-0.89	0.000
433.74	33.020	-2.969	37.33	0.31	12.378	9.213	37.17		-0.89	0.000
434.02	33.006	-3.606	37.34	0.31	12.359	9.209	6.55		-0.89	0.000
434.29	32.987	-4.255	37.36	0.31	12.337	9.203	-28.64		-0.89	0.000
434.56	32.962	-4.880	37.39	0.31	12.318	9.190	-38.73		-0.89	0.000
434.84	32.945	-5.505	37.41	0.31	12.256	9.178	-47.13		-0.89	0.000
435.11	32.914	-6.106	37.44	0.31	12.192	9.142	-48.78		-0.89	0.000
435.38	32.882	-6.695	37.47	0.31	12.174	9.082	-50.36		-0.89	0.000
435.67	32.847	-7.260	37.50	0.31	12.140	9.012	-45.55		-0.89	0.000
435.94	32.823	-7.800	37.53	0.31	12.131	8.966	-30.59		-0.89	0.000
436.21	32.782	-8.353	37.57	0.31	12.121	8.949	-12.43		-0.89	0.000
436.49	32.738	-8.858	37.61	0.31	12.082	8.919	47.10		-0.89	0.000
436.77	32.694	-9.339	37.66	0.31	12.003	8.891	85.94		-0.89	0.000
437.05	32.662	-9.820	37.69	0.31	11.905	8.838	159.76		-0.89	0.000
437.32	32.612	-10.240	37.74	0.31	11.807	8.745	189.69		-0.89	0.000
437.59	32.558	-10.661	37.79	0.31	11.657	8.622	226.80		-0.89	0.000
437.86	32.504	-11.022	37.85	0.31	11.532	8.480	233.80		-0.89	0.000
438.13	32.468	-11.370	37.88	0.31	11.389	8.318	233.09		-0.89	0.000
438.41	32.409	-11.683	37.94	0.31	11.237	8.156	222.99		-0.89	0.000
438.68	32.349	-11.971	38.00	0.31	11.169	7.992	211.69		-0.89	0.000
438.96	32.310	-12.224	38.04	0.31	11.020	7.823	186.57		-0.89	0.000
439.23	32.249	-12.452	38.10	0.31	10.879	7.659	171.78		-0.89	0.000
439.51	32.185	-12.632	38.17	0.31	10.725	7.577	115.65		-0.89	0.000
439.79	32.122	-12.788	38.23	0.31	10.590	7.411	85.73		-0.89	0.000
440.06	32.081	-12.909	38.27	0.31	10.438	7.248	4.68		-0.89	0.000
440.33	32.015	-12.993	38.33	0.31	10.303	7.085	-40.40		-0.89	0.000
440.62	31.949	-13.041	38.40	0.31	10.180	6.931	-138.35		-0.89	0.000
440.89	31.885	-13.065	38.47	0.31	10.049	6.784	-188.83		-0.89	0.000
441.18	31.818	-13.041	38.53	0.32	9.934	6.644	-275.00		-0.89	0.000
441.45	31.776	-12.981	38.57	0.32	9.824	6.507	-299.30		-0.89	0.000
441.73	31.712	-12.885	38.64	0.32	9.695	6.384	-306.76		-0.89	0.000
442.01	31.646	-12.764	38.70	0.32	9.606	6.266	-307.58		-0.89	0.000
442.28	31.585	-12.596	38.77	0.32	9.446	6.132	-290.19		-0.89	0.000
442.55	31.542	-12.404	38.81	0.32	9.310	5.993	-289.26		-0.89	0.000
442.83	31.480	-12.175	38.87	0.32	9.169	5.859	-303.94		-0.89	0.000
443.10	31.419	-11.911	38.93	0.32	9.066	5.796	-308.35		-0.89	0.000
443.38	31.382	-11.623	38.97	0.32	8.969	5.676	-291.28		-0.89	0.000
443.65	31.324	-11.298	39.03	0.32	8.871	5.572	-271.89		-0.89	0.000
443.93	31.268	-10.950	39.08	0.32	8.792	5.479	-250.24		-0.89	0.000
444.20	31.214	-10.565	39.14	0.32	8.727	5.394	-266.92		-0.89	0.000
444.47	31.181	-10.156	39.17	0.32	8.664	5.319	-281.19		-0.89	0.000
444.75	31.131	-9.712	39.22	0.32	8.628	5.251	-292.38		-0.89	0.000
445.03	31.085	-9.255	39.27	0.32	8.586	5.191	-294.41		-0.89	0.000
445.30	31.039	-8.750	39.31	0.32	8.533	5.137	-288.55		-0.89	0.000
445.57	31.009	-8.245	39.34	0.32	8.500	5.091	-272.47		-0.89	0.000
445.85	30.971	-7.704	39.38	0.32	8.464	5.047	-245.93		-0.89	0.000
446.12	30.935	-7.151	39.42	0.32	8.434	5.029	-244.75		-0.89	0.000
446.40	30.899	-6.575	39.45	0.32	8.406	5.001	-262.82		-0.89	0.000
446.67	30.878	-5.986	39.47	0.32	8.386	4.970	-263.20		-0.89	0.000
446.94	30.850	-5.373	39.50	0.32	8.375	4.947	-230.48		-0.89	0.000
447.22	30.827	-4.748	39.52	0.32	8.349	4.929	-207.54		-0.89	0.000
447.49	30.810	-4.123	39.54	0.32	8.353	4.915	-180.32		-0.89	0.000
447.77	30.795	-3.474	39.56	0.32	8.346	4.903	-185.81		-0.89	0.000
448.04	30.777	-2.812	39.57	0.32	8.335	4.895	-197.66		-0.89	0.000
448.31	30.767	-2.151	39.58	0.32	8.333	4.891	-211.29		-0.89	0.000
448.58	30.763	-1.490	39.59	0.32	8.331	4.888	-218.98		-0.89	0.000
448.85	30.758	-0.829	39.59	0.32	8.341	4.887	-227.67		-0.89	0.000
449.12	30.756	-0.168	39.59	0.32	8.342	4.889	-206.62		-0.89	0.000
449.39	30.754	0.481	39.60	0.32	8.351	4.892	-180.99		-0.89	0.000
449.66	30.754	1.154	39.60	0.32	8.351	4.897	-134.83		-0.89	0.000
449.93	30.754	1.815	39.60	0.32	8.355	4.902	-112.81		-0.89	0.000
450.20	30.754	2.476	39.60	0.32	8.362	4.908	-99.59		-0.89	0.000
450.47	30.769	3.113	39.58	0.32	8.360	4.912	-104.23		-0.89	0.000
450.74	30.785	3.762	39.57	0.32	8.360	4.916	-116.58		-0.89	0.000
451.02	30.803	4.387	39.55	0.32	8.360	4.918	-127.23		-0.89	0.000
451.29	30.823	5.024	39.53	0.32	8.366	4.920	-143.87		-0.89	0.000
451.56	30.851	5.637	39.50	0.32	8.367	4.923	-157.00		-0.89	0.000
451.83	30.882	6.226	39.47	0.32	8.371	4.926	-186.17		-0.89	0.000
452.10	30.905	6.815	39.44	0.32	8.373	4.928	-201.00		-0.89	0.000
452.38	30.941	7.380	39.41	0.32	8.371	4.930	-244.19		-0.89	0.000
452.65	30.978	7.921	39.37	0.32	8.377	4.933	-267.19		-0.89	0.000
452.93	31.005	8.450	39.34	0.32	8.392	4.939	-321.99		-0.89	0.000
453.20	31.047	8.954	39.30	0.32	8.403	4.950	-344.70		-0.89	0.000
453.48	31.095	9.423	39.26	0.32	8.431	4.968	-377.63		-0.89	0.000
453.75	31.142	9.892	39.21	0.32	8.452	4.990	-404.71		-0.89	0.000
454.03	31.177	10.325	39.17	0.32	8.482	5.018	-457.38		-0.89	0.000
454.30	31.228	10.721	39.12	0.32	8.511	5.037	-483.82		-0.89	0.000
454.58	31.283	11.082	39.07	0.32	8.528	5.064	-532.60		-0.89	0.000
454.85	31.341	11.430	39.01	0.32	8.557	5.100	-536.19		-0.89	0.000
455.13	31.378	11.743	38.97	0.32	8.591	5.135	-515.30		-0.89	0.000
455.40	31.438	12.019	38.91	0.32	8.627	5.170	-486.84		-0.89	0.000
455.67	31.500	12.272	38.85	0.32	8.653	5.207	-419.68		-0.89	0.000
455.95	31.562	12.488	38.79	0.32	8.689	5.244	-373.42		-0.89	0.000
456.22	31.603	12.668	38.75	0.32	8.734	5.282	-259.60		-0.89	0.000
456.49	31.667	12.812	38.68	0.32	8.773	5.328	-194.41		-0.89	0.000
456.76	31.732	12.921	38.62	0.32	8.813	5.376	-64.61		-0.89	0.000
457.04	31.773	13.005	38.58	0.32	8.856	5.398	33.91		-0.89	0.000
457.31	31.838	13.053	38.51	0.31	8.885	5.451	79.71		-0.89	0.000
457.58	31.904	13.065	38.45	0.31	8.935	5.505	139.51		-0.89	0.000
457.85	31.969	13.041	38.38	0.31	9.009	5.567	149.22		-0.89	0.000
458.12	32.013	12.981	38.34	0.31	9.102	5.638	146.08		-0.89	0.000
458.39	32.078	12.885	38.27	0.31	9.206	5.728	116.34		-0.89	0.000
458.66	32.141	12.764	38.21	0.31	9.310	5.828	96.08		-0.89	0.000
458.93	32.185	12.596	38.17	0.31	9.433	5.941	50.76		-0.89	0.000
459.20	32.246	12.416	38.10	0.31	9.499	6.067	32.79		-0.89	0.000
459.47	32.308	12.188	38.04	0.31	9.626	6.134	-10.30		-0.89	0.000
459.74	32.349	11.935	38.00	0.31	9.784	6.271	-16.60		-0.89	0.000
460.01	32.406	11.647	37.94	0.31	9.939	6.424	4.76		-0.89	0.000
460.28	32.464	11.334	37.89	0.31	10.100	6.588	21.25		-0.89	0.000
460.55	32.501	10.998	37.85	0.31	10.265	6.755	71.12		-0.89	0.000
460.82	32.556	10.625	37.79	0.31	10.413	6.923	90.60		-0.89	0.000
461.09	32.608	10.216	37.74	0.31	10.561	7.096	112.47		-0.89	0.000
461.37	32.641	9.784	37.71	0.31	10.649	7.257	113.40		-0.89	0.000
461.64	32.690	9.327	37.66	0.31	10.799	7.426	84.77		-0.89	0.000
461.91	32.733	8.846	37.62	0.31	10.942	7.509	57.04		-0.89	0.000
462.18	32.778	8.341	37.57	0.31	11.102	7.670	-11.66		-0.89	0.000
462.45	32.805	7.825	37.54	0.31	11.239	7.832	-45.93		-0.89	0.000
462.73	32.842	7.272	37.51	0.31	11.376	7.989	-100.50		-0.89	0.000
463.00	32.878	6.707	37.47	0.31	11.511	8.138	-115.16		-0.89	0.000
463.27	32.897	6.118	37.45	0.31	11.622	8.277	-131.46		-0.89	0.000
463.54	32.928	5.517	37.42	0.31	11.733	8.403	-140.39		-0.89	0.000
463.82	32.953	4.904	37.40	0.31	11.774	8.521	-169.01		-0.89	0.000
464.09	32.974	4.279	37.38	0.31	11.873	8.623	-211.97		-0.89	0.000
464.37	32.988	3.618	37.36	0.31	11.951	8.716	-217.66		-0.89	0.000
464.65	33.001	2.969	37.35	0.31	12.005	8.757	-204.14		-0.89	0.000
464.92	33.017	2.308	37.33	0.31	12.064	8.829	-187.47		-0.89	0.000
465.19	33.026	1.635	37.32	0.31	12.097	8.893	-163.84		-0.89	0.000
465.46	33.027	0.974	37.32	0.31	12.146	8.940	-156.44		-0.89	0.000
465.74	33.029	0.300	37.32	0.31	12.162	8.978	-154.32		-0.89	0.000
466.01	33.031	-0.361	37.32	0.31	12.162	9.001	-151.00		-0.89	0.000
466.27	33.031	-1.034	37.32	0.31	12.164	9.011	-136.86		-0.89	0.000
466.55	33.031	-1.683	37.32	0.31	12.165	9.013	-140.40		-0.89	0.000
466.82	33.031	-2.344	37.32	0.31	12.164	9.012	-137.95		-0.89	0.000
467.09	33.022	-3.005	37.33	0.31	12.153	9.011	-128.97		-0.89	0.000
467.37	33.003	-3.654	37.35	0.31	12.143	9.007	-117.41		-0.89	0.000
467.65	32.983	-4.291	37.37	0.31	12.120	9.002	-112.41		-0.89	0.000
467.92	32.960	-4.928	37.39	0.31	12.088	8.994	-99.06		-0.89	0.000
468.20	32.942	-5.553	37.41	0.31	12.050	8.978	-86.09		-0.89	0.000
468.48	32.913	-6.166	37.44	0.31	11.970	8.944	-62.72		-0.89	0.000
468.76	32.879	-6.755	37.47	0.31	11.941	8.885	-70.31		-0.89	0.000
469.04	32.845	-7.332	37.51	0.31	11.941	8.818	-123.20		-0.89	0.000
469.31	32.806	-7.897	37.54	0.31	11.928	8.768	-159.89		-0.89	0.000
469.59	32.778	-8.425	37.57	0.31	11.911	8.741	-201.26		-0.89	0.000
469.87	32.735	-8.930	37.62	0.31	11.882	8.711	-216.97		-0.89	0.000
470.14	32.690	-9.423	37.66	0.31	11.778	8.674	-250.43		-0.89	0.000
470.42	32.640	-9.880	37.71	0.31	11.672	8.599	-259.81		-0.89	0.000
470.70	32.608	-10.313	37.74	0.31	11.581	8.497	-247.06		-0.89	0.000
470.97	32.556	-10.709	37.79	0.31	11.447	8.431	-203.33		-0.89	0.000
471.25	32.500	-11.094	37.85	0.31	11.298	8.287	-180.61		-0.89	0.000
471.52	32.445	-11.430	37.91	0.31	11.168	8.131	-141.66		-0.89	0.000
471.80	32.406	-11.743	37.94	0.31	11.022	7.965	-126.63		-0.89	0.000
472.08	32.346	-12.031	38.00	0.31	10.876	7.804	-83.48		-0.89	0.000
472.36	32.285	-12.284	38.07	0.31	10.722	7.638	-51.88		-0.89	0.000
472.63	32.223	-12.500	38.13	0.31	10.662	7.472	6.00		-0.89	0.000
472.90	32.181	-12.680	38.17	0.31	10.517	7.311	23.13		-0.89	0.000
473.17	32.118	-12.825	38.23	0.31	10.374	7.149	45.07		-0.89	0.000
473.45	32.054	-12.933	38.30	0.31	10.243	6.992	49.59		-0.89	0.000
473.72	32.009	-13.005	38.34	0.31	10.105	6.835	51.25		-0.89	0.000
473.99	31.945	-13.053	38.41	0.31	9.987	6.690	47.28		-0.89	0.000
474.26	31.879	-13.065	38.47	0.31	9.868	6.620	27.99		-0.89	0.000
474.53	31.815	-13.029	38.53	0.32	9.759	6.481	16.38		-0.89	0.000
474.80	31.772	-12.969	38.58	0.32	9.648	6.355	-18.06		-0.89	0.000
475.08	31.706	-12.885	38.64	0.32	9.591	6.234	-51.16		-0.89	0.000
475.36	31.642	-12.752	38.71	0.32	9.436	6.121	-130.29		-0.89	0.000
475.63	31.600	-12.596	38.75	0.32	9.287	5.994	-148.35		-0.89	0.000
475.91	31.538	-12.392	38.81	0.32	9.156	5.856	-147.33		-0.89	0.000
476.18	31.476	-12.163	38.87	0.32	9.017	5.725	-142.43		-0.89	0.000
476.46	31.417	-11.899	38.93	0.32	8.919	5.602	-159.47		-0.90	0.000
476.72	31.377	-11.599	38.97	0.32	8.828	5.496	-183.32		-0.90	0.000
477.00	31.321	-11.274	39.03	0.32	8.731	5.448	-225.24		-0.90	0.000
477.27	31.265	-10.925	39.08	0.32	8.666	5.358	-232.01		-0.90	0.000
477.55	31.210	-10.541	39.14	0.32	8.594	5.274	-195.43		-0.90	0.000
477.82	31.176	-10.120	39.17	0.32	8.560	5.203	-153.72		-0.90	0.000
478.10	31.127	-9.688	39.22	0.32	8.505	5.136	-47.70		-0.90	0.000
478.37	31.080	-9.219	39.27	0.32	8.464	5.078	8.76		-0.90	0.000
478.64	31.050	-8.726	39.30	0.32	8.422	5.029	95.96		-0.90	0.000
478.91	31.008	-8.221	39.34	0.32	8.376	4.984	131.06		-0.90	0.000
479.19	30.969	-7.692	39.38	0.32	8.350	4.946	182.83		-0.90	0.000
479.46	30.931	-7.139	39.42	0.32	8.313	4.911	205.64		-0.90	0.000
479.73	30.909	-6.562	39.44	0.32	8.298	4.896	266.68		-0.90	0.000
480.00	30.878	-5.974	39.47	0.32	8.272	4.870	293.81		-0.90	0.000
480.28	30.850	-5.373	39.50	0.32	8.263	4.850	332.66		-0.90	0.000
480.55	30.832	-4.760	39.52	0.32	8.260	4.832	344.29		-0.90	0.000
480.82	30.810	-4.123	39.54	0.32	8.250	4.818	342.54		-0.90	0.000
481.09	30.796	-3.486	39.55	0.32	8.229	4.805	326.81		-0.90	0.000
481.36	30.783	-2.825	39.57	0.32	8.200	4.798	316.99		-0.90	0.000
481.63	30.771	-2.175	39.58	0.32	8.213	4.794	290.55		-0.90	0.000
481.90	30.765	-1.514	39.58	0.32	8.245	4.792	201.21		-0.90	0.000
482.17	30.759	-0.853	39.59	0.32	8.235	4.791	154.04		-0.90	0.000
482.44	30.756	-0.192	39.59	0.32	8.235	4.791	67.80		-0.90	0.000
482.70	30.756	0.457	39.59	0.32	8.252	4.796	28.10		-0.90	0.000
482.97	30.756	1.118	39.59	0.32	8.242	4.803	-65.22		-0.90	0.000
483.23	30.756	1.767	39.59	0.32	8.237	4.807	-117.36		-0.90	0.000
483.50	30.756	2.404	39.59	0.32	8.250	4.813	-194.82		-0.90	0.000
483.77	30.765	3.053	39.58	0.32	8.248	4.818	-215.71		-0.90	0.000
484.05	30.785	3.690	39.57	0.32	8.256	4.823	-240.72		-0.90	0.000
484.32	30.804	4.315	39.55	0.32	8.259	4.824	-246.46		-0.90	0.000
484.59	30.830	4.952	39.52	0.32	8.257	4.825	-202.56		-0.90	0.000
484.86	30.846	5.565	39.50	0.32	8.259	4.829	-160.22		-0.90	0.000
485.14	30.877	6.178	39.47	0.32	8.263	4.830	-66.45		-0.90	0.000
485.41	30.910	6.755	39.44	0.32	8.272	4.834	-24.38		-0.90	0.000
485.68	30.933	7.320	39.42	0.32	8.266	4.839	32.50		-0.90	0.000
485.95	30.971	7.861	39.38	0.32	8.279	4.841	63.11		-0.90	0.000
486.21	31.013	8.377	39.34	0.32	8.288	4.844	124.17		-0.90	0.000
486.49	31.041	8.882	39.31	0.32	8.298	4.857	142.52		-0.90	0.000
486.76	31.087	9.351	39.26	0.32	8.316	4.863	164.52		-0.90	0.000
487.03	31.133	9.808	39.22	0.32	8.341	4.882	167.04		-0.90	0.000
487.30	31.183	10.228	39.17	0.32	8.370	4.909	160.45		-0.90	0.000
487.57	31.219	10.637	39.13	0.32	8.401	4.938	153.66		-0.90	0.000
487.84	31.272	11.010	39.08	0.32	8.429	4.966	125.73		-0.90	0.000
488.11	31.328	11.346	39.02	0.32	8.461	5.002	107.37		-0.90	0.000
488.39	31.367	11.671	38.98	0.32	8.489	5.034	80.56		-0.90	0.000
488.66	31.424	11.947	38.93	0.32	8.528	5.069	80.70		-0.90	0.000
488.94	31.486	12.212	38.86	0.32	8.534	5.104	94.31		-0.90	0.000
489.21	31.549	12.428	38.80	0.32	8.569	5.123	105.93		-0.90	0.000
489.48	31.590	12.620	38.76	0.32	8.610	5.160	75.64		-0.90	0.000
489.75	31.653	12.776	38.70	0.32	8.643	5.199	38.77		-0.90	0.000
490.01	31.718	12.897	38.63	0.32	8.690	5.243	-24.14		-0.90	0.000
490.28	31.762	12.993	38.59	0.32	8.735	5.286	-50.73		-0.90	0.000
490.55	31.824	13.041	38.53	0.31	8.776	5.334	-71.59		-0.90	0.000
490.82	31.890	13.065	38.46	0.31	8.805	5.388	-76.48		-0.90	0.000
491.10	31.933	13.053	38.42	0.31	8.858	5.448	-94.37		-0.90	0.000
491.37	31.999	13.005	38.35	0.31	8.947	5.481	-111.14		-0.90	0.000
491.65	32.064	12.921	38.29	0.31	9.038	5.556	-175.22		-0.90	0.000
491.92	32.108	12.800	38.24	0.31	9.136	5.646	-216.31		-0.90	0.000
492.19	32.171	12.656	38.18	0.31	9.250	5.744	-286.86		-0.90	0.000
492.46	32.235	12.476	38.12	0.31	9.375	5.857	-287.69		-0.90	0.000
492.74	32.296	12.248	38.05	0.31	9.504	5.984	-250.91		-0.90	0.000
493.01	32.336	12.007	38.01	0.31	9.657	6.118	-227.79		-0.90	0.000
493.28	32.395	11.719	37.96	0.31	9.729	6.265	-187.85		-0.90	0.000
493.56	32.453	11.418	37.90	0.31	9.877	6.420	-183.68		-0.90	0.000
493.83	32.509	11.070	37.84	0.31	10.034	6.582	-182.72		-0.90	0.000
494.10	32.546	10.697	37.80	0.31	10.194	6.746	-192.14		-0.90	0.000
494.38	32.597	10.300	37.75	0.31	10.337	6.828	-175.88		-0.90	0.000
494.65	32.649	9.868	37.70	0.31	10.494	6.994	-160.28		-0.90	0.000
494.93	32.679	9.411	37.67	0.31	10.645	7.157	-100.26		-0.90	0.000
495.20	32.726	8.930	37.62	0.31	10.790	7.323	-58.43		-0.90	0.000
495.47	32.770	8.425	37.58	0.31	10.938	7.482	8.56		-0.90	0.000
495.74	32.810	7.909	37.54	0.31	11.074	7.641	16.87		-0.90	0.000
496.02	32.835	7.356	37.52	0.31	11.146	7.795	-10.12		-0.90	0.000
496.29	32.870	6.791	37.48	0.31	11.267	7.941	-41.72		-0.90	0.000
496.56	32.900	6.214	37.45	0.31	11.389	8.075	-49.89		-0.90	0.000
496.84	32.923	5.613	37.43	0.31	11.501	8.196	-56.22		-0.90	0.000
497.11	32.947	5.000	37.40	0.31	11.589	8.260	-62.58		-0.90	0.000
497.38	32.970	4.375	37.38	0.31	11.671	8.372	-71.74		-0.90	0.000
497.66	32.987	3.738	37.36	0.31	11.771	8.470	-83.41		-0.90	0.000
497.93	32.999	3.077	37.35	0.31	11.831	8.560	-123.57		-0.90	0.000
498.21	33.014	2.416	37.34	0.31	11.858	8.633	-155.23		-0.90	0.000
498.47	33.023	1.755	37.33	0.31	11.915	8.691	-191.37		-0.90	0.000
498.74	33.026	1.082	37.32	0.31	11.912	8.739	-186.35		-0.90	0.000
499.01	33.033	0.421	37.32	0.31	11.955	8.775	-164.63		-0.90	0.000
499.28	33.033	-0.228	37.32	0.31	11.962	8.799	-153.15		-0.90	0.000
499.56	33.033	-0.889	37.32	0.31	11.958	8.807	-146.25		-0.90	0.000
499.83	33.033	-1.550	37.32	0.31	11.964	8.813	-136.97		-0.90	0.000
500.10	33.033	-2.224	37.32	0.31	11.964	8.815	-129.10		-0.90	0.000
500.37	33.023	-2.885	37.33	0.31	11.962	8.814	-121.54		-0.90	0.000
500.65	33.009	-3.522	37.34	0.31	11.951	8.810	-114.55		-0.90	0.000
500.92	32.990	-4.171	37.36	0.31	11.931	8.805	-122.78		-0.90	0.000
501.20	32.967	-4.796	37.38	0.31	11.902	8.799	-136.86		-0.90	0.000
501.48	32.937	-5.421	37.41	0.31	11.867	8.783	-147.27		-0.90	0.000
501.76	32.922	-6.046	37.43	0.31	11.803	8.745	-143.38		-0.90	0.000
502.04	32.888	-6.647	37.46	0.31	11.753	8.681	-130.63		-0.90	0.000
502.32	32.851	-7.236	37.50	0.31	11.732	8.618	-82.58		-0.90	0.000
502.59	32.815	-7.788	37.53	0.31	11.718	8.571	-52.04		-0.90	0.000
502.86	32.787	-8.329	37.56	0.31	11.694	8.540	-11.22		-0.90	0.000
503.13	32.746	-8.834	37.60	0.31	11.659	8.529	1.99		-0.90	0.000
503.41	32.701	-9.315	37.65	0.31	11.568	8.498	10.64		-0.90	0.000
503.68	32.651	-9.772	37.70	0.31	11.521	8.445	22.04		-0.90	0.000
503.95	32.619	-10.204	37.73	0.31	11.420	8.349	44.68		-0.90	0.000
504.22	32.567	-10.601	37.78	0.31	11.287	8.228	57.55		-0.90	0.000
504.50	32.512	-10.986	37.84	0.31	11.157	8.082	70.28		-0.90	0.000
504.77	32.476	-11.334	37.87	0.31	11.015	7.923	69.00		-0.90	0.000
505.05	32.418	-11.659	37.93	0.31	10.863	7.761	63.93		-0.90	0.000
505.32	32.358	-11.947	37.99	0.31	10.724	7.597	59.87		-0.90	0.000
505.59	32.299	-12.200	38.05	0.31	10.599	7.433	16.51		-0.90	0.000
505.86	32.256	-12.428	38.09	0.31	10.455	7.353	-1.54		-0.90	0.000
506.14	32.195	-12.620	38.16	0.31	10.314	7.192	-36.89		-0.90	0.000
506.41	32.131	-12.776	38.22	0.31	10.242	7.032	-44.20		-0.90	0.000
506.69	32.067	-12.897	38.28	0.31	10.108	6.871	-37.32		-0.90	0.000
506.97	32.024	-12.981	38.33	0.31	9.987	6.719	0.46		-0.90	0.000
507.23	31.958	-13.041	38.39	0.31	9.862	6.571	17.46		-0.90	0.000
507.51	31.895	-13.065	38.46	0.31	9.745	6.432	29.19		-0.90	0.000
507.78	31.851	-13.041	38.50	0.31	9.627	6.299	21.32		-0.90	0.000
508.05	31.785	-12.993	38.57	0.32	9.536	6.178	-18.83		-0.90	0.000
508.32	31.721	-12.921	38.63	0.32	9.424	6.063	-36.27		-0.90	0.000
508.59	31.677	-12.800	38.67	0.32	9.260	6.011	-52.79		-0.90	0.000
508.87	31.614	-12.644	38.74	0.32	9.192	5.898	-54.12		-0.90	0.000
509.14	31.551	-12.464	38.80	0.32	9.054	5.762	-68.52		-0.90	0.000
509.42	31.488	-12.248	38.86	0.32	8.922	5.637	-87.05		-0.90	0.000
509.70	31.449	-11.995	38.90	0.32	8.810	5.516	-153.45		-0.90	0.000
509.98	31.390	-11.707	38.96	0.32	8.727	5.404	-182.65		-0.90	0.000
510.25	31.332	-11.382	39.02	0.32	8.636	5.310	-220.78		-0.90	0.000
510.52	31.274	-11.034	39.08	0.32	8.557	5.222	-219.44		-0.90	0.000
510.80	31.238	-10.661	39.11	0.32	8.498	5.137	-198.63		-0.90	0.000
511.07	31.187	-10.264	39.16	0.32	8.432	5.069	-174.76		-0.90	0.000
511.34	31.136	-9.832	39.21	0.32	8.375	5.007	-106.71		-0.90	0.000
511.62	31.090	-9.375	39.26	0.32	8.364	4.978	-77.01		-0.90	0.000
511.89	31.059	-8.882	39.29	0.32	8.306	4.926	-18.59		-0.90	0.000
512.16	31.017	-8.377	39.33	0.32	8.277	4.882	-10.10		-0.90	0.000
512.44	30.976	-7.861	39.37	0.32	8.242	4.841	-10.74		-0.90	0.000
512.71	30.950	-7.308	39.40	0.32	8.221	4.805	-16.56		-0.90	0.000
512.98	30.917	-6.743	39.43	0.32	8.190	4.776	-58.22		-0.90	0.000
513.25	30.883	-6.166	39.47	0.32	8.164	4.754	-80.74		-0.90	0.000
513.53	30.855	-5.553	39.49	0.32	8.152	4.734	-107.49		-0.90	0.000
513.80	30.837	-4.952	39.51	0.32	8.139	4.717	-112.95		-0.90	0.000
514.08	30.814	-4.315	39.54	0.32	8.133	4.703	-132.40		-0.90	0.000
514.35	30.795	-3.678	39.56	0.32	8.123	4.697	-165.48		-0.90	0.000
514.62	30.778	-3.017	39.57	0.32	8.119	4.690	-261.12		-0.90	0.000
514.89	30.774	-2.356	39.58	0.32	8.115	4.683	-304.16		-0.90	0.000
515.17	30.764	-1.695	39.59	0.32	8.112	4.679	-327.23		-0.90	0.000
515.44	30.755	-1.034	39.59	0.32	8.120	4.679	-318.63		-0.90	0.000
515.71	30.755	-0.361	39.59	0.32	8.129	4.679	-277.64		-0.90	0.000
515.98	30.755	0.288	39.59	0.32	8.130	4.681	-257.54		-0.90	0.000
516.24	30.755	0.962	39.59	0.32	8.130	4.686	-258.18		-0.90	0.000
516.51	30.755	1.623	39.59	0.32	8.135	4.691	-269.13		-0.90	0.000
516.78	30.755	2.272	39.59	0.32	8.138	4.695	-309.58		-0.90	0.000
517.05	30.764	2.921	39.59	0.32	8.136	4.699	-324.55		-0.90	0.000
517.32	30.780	3.558	39.57	0.32	8.138	4.702	-315.31		-0.90	0.000
517.59	30.799	4.195	39.55	0.32	8.143	4.707	-294.97		-0.90	0.000
517.86	30.821	4.820	39.53	0.32	8.152	4.712	-228.92		-0.90	0.000
518.14	30.839	5.433	39.51	0.32	8.148	4.715	-197.93		-0.90	0.000
518.41	30.865	6.034	39.48	0.32	8.149	4.716	-151.97		-0.90	0.000
518.68	30.899	6.623	39.45	0.32	8.156	4.719	-137.37		-0.90	0.000
518.96	30.933	7.200	39.42	0.32	8.151	4.722	-97.65		-0.90	0.000
519.23	30.959	7.740	39.39	0.32	8.158	4.723	-76.68		-0.90	0.000
519.50	31.000	8.281	39.35	0.32	8.169	4.724	-52.64		-0.90	0.000
519.77	31.041	8.786	39.31	0.32	8.183	4.735	-46.93		-0.90	0.000
520.04	31.072	9.267	39.28	0.32	8.194	4.747	-31.74		-0.90	0.000
520.31	31.119	9.724	39.23	0.32	8.227	4.765	-17.67		-0.90	0.000
520.58	31.168	10.156	39.18	0.32	8.245	4.789	15.13		-0.90	0.000
520.85	31.204	10.565	39.15	0.32	8.259	4.817	23.92		-0.90	0.000
521.12	31.258	10.937	39.09	0.32	8.299	4.848	21.14		-0.90	0.000
521.39	31.312	11.274	39.04	0.32	8.324	4.863	17.14		-0.90	0.000
521.66	31.351	11.599	39.00	0.32	8.354	4.895	21.80		-0.90	0.000
521.93	31.409	11.887	38.94	0.32	8.385	4.928	29.11		-0.90	0.000
522.20	31.469	12.151	38.88	0.32	8.412	4.961	49.77		-0.90	0.000
522.47	31.531	12.380	38.82	0.32	8.443	4.996	69.19		-0.90	0.000
522.74	31.572	12.572	38.78	0.32	8.462	5.029	123.45		-0.90	0.000
523.01	31.636	12.740	38.71	0.32	8.500	5.069	142.79		-0.90	0.000
523.28	31.699	12.873	38.65	0.32	8.535	5.111	164.66		-0.90	0.000
523.55	31.744	12.969	38.61	0.32	8.587	5.153	167.05		-0.90	0.000
523.82	31.808	13.029	38.54	0.32	8.625	5.177	149.97		-0.90	0.000
524.09	31.873	13.065	38.48	0.31	8.671	5.227	149.30		-0.90	0.000
524.36	31.915	13.053	38.43	0.31	8.730	5.281	133.73		-0.90	0.000
524.63	31.982	13.017	38.37	0.31	8.819	5.340	112.05		-0.90	0.000
524.90	32.046	12.945	38.30	0.31	8.857	5.410	49.34		-0.90	0.000
525.17	32.090	12.837	38.26	0.31	8.950	5.495	19.03		-0.90	0.000
525.44	32.154	12.704	38.20	0.31	9.053	5.592	-32.04		-0.90	0.000
525.71	32.215	12.524	38.13	0.31	9.162	5.698	-51.75		-0.90	0.000
525.99	32.277	12.320	38.07	0.31	9.283	5.757	-73.47		-0.90	0.000
526.26	32.318	12.079	38.03	0.31	9.423	5.880	-85.84		-0.90	0.000
526.53	32.377	11.815	37.97	0.31	9.565	6.010	-119.09		-0.90	0.000
526.81	32.437	11.502	37.91	0.31	9.717	6.157	-140.80		-0.90	0.000
527.08	32.474	11.178	37.88	0.31	9.788	6.312	-182.47		-0.90	0.000
527.35	32.531	10.817	37.82	0.31	9.945	6.471	-186.16		-0.90	0.000
527.63	32.582	10.421	37.77	0.31	10.095	6.635	-166.05		-0.90	0.000
527.90	32.635	10.000	37.72	0.31	10.239	6.793	-154.67		-0.90	0.000
528.17	32.667	9.555	37.68	0.31	10.390	6.952	-147.92		-0.90	0.000
528.45	32.713	9.099	37.64	0.31	10.528	7.113	-158.04		-0.90	0.000
528.72	32.756	8.594	37.59	0.31	10.675	7.269	-208.47		-0.90	0.000
529.00	32.796	8.077	37.55	0.31	10.812	7.346	-239.57		-0.90	0.000
529.27	32.826	7.524	37.52	0.31	10.950	7.501	-291.80		-0.90	0.000
529.55	32.862	6.959	37.49	0.31	11.065	7.650	-294.48		-0.90	0.000
529.82	32.891	6.382	37.46	0.31	11.129	7.794	-256.09		-0.90	0.000
530.10	32.914	5.769	37.44	0.31	11.241	7.924	-226.06		-0.90	0.000
530.37	32.941	5.168	37.41	0.31	11.344	8.046	-175.00		-0.90	0.000
530.65	32.965	4.543	37.38	0.31	11.430	8.154	-159.06		-0.90	0.000
530.92	32.985	3.894	37.37	0.31	11.505	8.251	-143.96		-0.90	0.000
531.20	32.992	3.245	37.36	0.31	11.583	8.335	-136.00		-0.90	0.000
531.47	33.009	2.584	37.34	0.31	11.639	8.414	-128.70		-0.90	0.000
531.74	33.018	1.911	37.33	0.31	11.673	8.472	-111.30		-0.90	0.000
532.01	33.026	1.250	37.32	0.31	11.723	8.500	-105.00		-0.90	0.000
532.28	33.028	0.589	37.32	0.31	11.719	8.546	-123.75		-0.90	0.000
532.56	33.029	-0.060	37.32	0.31	11.734	8.576	-149.11		-0.90	0.000
532.83	33.029	-0.733	37.32	0.31	11.737	8.591	-186.84		-0.90	0.000
533.10	33.029	-1.406	37.32	0.31	11.734	8.598	-193.49		-0.90	0.000
533.37	33.029	-2.067	37.32	0.31	11.741	8.600	-184.06		-0.90	0.000
533.63	33.023	-2.716	37.33	0.31	11.732	8.594	-168.65		-0.90	0.000
533.91	33.010	-3.365	37.34	0.31	11.725	8.591	-118.68		-0.90	0.000
534.19	32.991	-4.002	37.36	0.31	11.715	8.589	-81.49		-0.90	0.000
534.46	32.969	-4.639	37.38	0.31	11.686	8.581	-1.39		-0.90	0.000
534.74	32.945	-5.276	37.41	0.31	11.634	8.575	22.60		-0.90	0.000
535.01	32.928	-5.889	37.42	0.31	11.606	8.551	38.81		-0.90	0.000
535.28	32.894	-6.478	37.46	0.31	11.542	8.503	35.37		-0.90	0.000
535.56	32.862	-7.055	37.49	0.31	11.521	8.431	24.94		-0.90	0.000
535.83	32.823	-7.608	37.53	0.31	11.489	8.372	13.59		-0.90	0.000
536.10	32.797	-8.149	37.55	0.31	11.472	8.334	-36.16		-0.90	0.000
536.38	32.754	-8.666	37.60	0.31	11.442	8.304	-72.40		-0.90	0.000
536.66	32.710	-9.147	37.64	0.31	11.395	8.273	-169.57		-0.90	0.000
536.94	32.663	-9.627	37.69	0.31	11.282	8.225	-213.55		-0.90	0.000
537.21	32.631	-10.084	37.72	0.31	11.184	8.139	-284.32		-0.90	0.000
537.49	32.578	-10.505	37.77	0.31	11.051	8.022	-301.83		-0.90	0.000
537.77	32.526	-10.889	37.82	0.31	10.981	7.953	-276.14		-0.90	0.000
538.04	32.469	-11.250	37.88	0.31	10.849	7.805	-239.55		-0.90	0.000
538.32	32.431	-11.587	37.92	0.31	10.713	7.642	-140.73		-0.90	0.000
538.60	32.374	-11.875	37.98	0.31	10.577	7.478	-97.97		-0.90	0.000
538.88	32.313	-12.151	38.04	0.31	10.432	7.314	-36.22		-0.90	0.000
539.15	32.251	-12.380	38.10	0.31	10.300	7.159	-12.46		-0.90	0.000
539.43	32.209	-12.584	38.14	0.31	10.166	6.999	36.29		-0.90	0.000
539.70	32.146	-12.752	38.20	0.31	10.034	6.843	56.93		-0.90	0.000
539.97	32.082	-12.885	38.27	0.31	9.906	6.687	46.94		-0.90	0.000
540.25	32.038	-12.969	38.31	0.31	9.787	6.535	-9.57		-0.90	0.000
540.52	31.974	-13.029	38.38	0.31	9.665	6.392	-53.83		-0.90	0.000
540.79	31.910	-13.065	38.44	0.31	9.611	6.259	-158.03		-0.90	0.000
541.07	31.844	-13.053	38.51	0.31	9.506	6.193	-210.79		-0.90	0.000
541.34	31.800	-13.005	38.55	0.32	9.391	6.070	-314.50		-0.90	0.000
541.63	31.736	-12.933	38.61	0.32	9.297	5.957	-368.08		-0.90	0.000
541.90	31.672	-12.812	38.68	0.32	9.165	5.855	-462.54		-0.90	0.000
542.18	31.609	-12.656	38.74	0.32	9.021	5.743	-506.41		-0.90	0.000
542.45	31.564	-12.476	38.79	0.32	8.883	5.622	-546.04		-0.90	0.000
542.73	31.504	-12.260	38.85	0.32	8.764	5.497	-538.10		-0.90	0.000
543.00	31.444	-12.007	38.91	0.32	8.674	5.381	-501.22		-0.90	0.000
543.27	31.385	-11.731	38.97	0.32	8.579	5.274	-479.55		-0.90	0.000
543.55	31.345	-11.418	39.01	0.32	8.537	5.182	-418.46		-0.90	0.000
543.83	31.288	-11.082	39.06	0.32	8.456	5.097	-377.80		-0.90	0.000
544.11	31.236	-10.697	39.11	0.32	8.383	5.016	-286.72		-0.90	0.000
544.38	31.182	-10.300	39.17	0.32	8.330	4.950	-238.93		-0.90	0.000
544.66	31.147	-9.868	39.20	0.32	8.279	4.918	-158.10		-0.90	0.000
544.93	31.100	-9.411	39.25	0.32	8.244	4.861	-132.93		-0.90	0.000
545.20	31.056	-8.918	39.29	0.32	8.181	4.818	-126.92		-0.90	0.000
545.48	31.026	-8.425	39.32	0.32	8.154	4.775	-145.69		-0.90	0.000
545.75	30.983	-7.897	39.37	0.32	8.131	4.737	-210.76		-0.90	0.000
546.02	30.947	-7.344	39.40	0.32	8.100	4.704	-224.83		-0.90	0.000
546.30	30.913	-6.779	39.44	0.32	8.069	4.679	-230.08		-0.90	0.000
546.57	30.890	-6.202	39.46	0.32	8.070	4.654	-229.05		-0.90	0.000
546.85	30.863	-5.589	39.49	0.32	8.049	4.637	-254.58		-0.90	0.000
547.13	30.837	-4.988	39.51	0.32	8.027	4.624	-306.30		-0.90	0.000
547.40	30.812	-4.339	39.54	0.32	8.017	4.612	-325.20		-0.90	0.000
547.67	30.800	-3.690	39.55	0.32	8.026	4.608	-348.31		-0.90	0.000
547.94	30.783	-3.041	39.57	0.32	8.004	4.598	-347.15		-0.90	0.000
548.22	30.772	-2.392	39.58	0.32	8.010	4.593	-340.01		-0.90	0.000
548.49	30.764	-1.731	39.59	0.32	7.998	4.592	-335.52		-0.90	0.000
548.76	30.759	-1.058	39.59	0.32	8.013	4.592	-331.49		-0.90	0.000
549.03	30.755	-0.385	39.59	0.32	8.010	4.592	-326.29		-0.90	0.000
549.30	30.755	0.264	39.59	0.32	8.013	4.597	-303.93		-0.90	0.000
549.57	30.755	0.925	39.59	0.32	8.034	4.603	-292.03		-0.90	0.000
549.84	30.755	1.587	39.59	0.32	8.019	4.606	-286.85		-0.90	0.000
550.11	30.755	2.248	39.59	0.32	8.031	4.612	-283.74		-0.90	0.000
550.38	30.762	2.897	39.59	0.32	8.029	4.617	-288.70		-0.90	0.000
550.65	30.780	3.534	39.57	0.32	8.041	4.621	-273.33		-0.90	0.000
550.92	30.800	4.183	39.55	0.32	8.036	4.626	-210.91		-0.90	0.000
551.19	30.815	4.796	39.53	0.32	8.036	4.629	-166.40		-0.90	0.000
551.47	30.840	5.409	39.51	0.32	8.048	4.636	-81.62		-0.90	0.000
551.74	30.871	6.010	39.48	0.32	8.040	4.638	-64.60		-0.90	0.000
552.01	30.901	6.623	39.45	0.32	8.054	4.640	-67.62		-0.90	0.000
552.28	30.924	7.188	39.43	0.32	8.045	4.644	-77.04		-0.90	0.000
552.56	30.964	7.728	39.39	0.32	8.050	4.645	-65.89		-0.90	0.000
552.83	31.003	8.257	39.35	0.32	8.066	4.648	-40.63		-0.90	0.000
553.10	31.032	8.774	39.32	0.32	8.081	4.654	23.49		-0.90	0.000
553.37	31.076	9.255	39.27	0.32	8.096	4.670	53.12		-0.90	0.000
553.64	31.124	9.712	39.23	0.32	8.109	4.687	77.07		-0.90	0.000
553.91	31.158	10.156	39.19	0.32	8.134	4.709	76.01		-0.90	0.000
554.18	31.209	10.553	39.14	0.32	8.153	4.736	37.35		-0.90	0.000
554.45	31.263	10.937	39.09	0.32	8.185	4.765	16.55		-0.90	0.000
554.72	31.299	11.274	39.05	0.32	8.222	4.782	-15.46		-0.90	0.000
554.99	31.356	11.599	38.99	0.32	8.242	4.814	-34.93		-0.90	0.000
555.26	31.417	11.887	38.93	0.32	8.278	4.846	-90.36		-0.90	0.000
555.54	31.476	12.151	38.87	0.32	8.293	4.877	-120.42		-0.90	0.000
555.81	31.517	12.380	38.83	0.32	8.323	4.911	-187.73		-0.90	0.000
556.08	31.580	12.584	38.77	0.32	8.357	4.946	-211.03		-0.90	0.000
556.35	31.642	12.740	38.71	0.32	8.393	4.984	-241.33		-0.90	0.000
556.63	31.685	12.873	38.67	0.32	8.433	5.024	-248.93		-0.90	0.000
556.90	31.749	12.969	38.60	0.32	8.467	5.066	-259.52		-0.90	0.000
