Name           :	1mgmlAuDDT_O14	
User           :	Isaac	
Date           :	8/6/2014	

Probe1         :	Wilhelmy	
Perimeter      : 	39.240	

Probe2         :	Wilhelmy	
Perimeter      : 	39.240	

Trough         :	Extra Small	
Width          :	50.0	
Area           :	7035.0	
Symmetric comp :	True	

Subphase       :	Water	
Surface tension:	72.80	
pH             :	7.00	
Temperature    :	19.5	

Addition       :		
Concentration  :		
Unit           :	Unknown         	

Substance1     :	Au NP	
MW             :	197.0	
Concentration  :	1.000	
Unit           :	mg/ml           	
Volume         :	400.00	

Substance2     :		
MW             : 		
Concentration  : 		
Unit           :	Unknown         	
Volume         : 		

Substrate      :		
Height         : 		
Shape          : 	Rectangle       	
Width          :		
Thickness      :		


t[s]	Bpos	Bspd	A[cm²]	Mma[Å²]	P1[mN/m]	P2[mN/m]	T[°C]	SP[V]	pH	AD[V]
12.27	23.668	15.841	46.68	0.38	11.892	8.758	-184.35		-0.82	0.000
12.54	23.746	15.829	46.60	0.38	12.031	8.765	-130.80		-0.82	0.000
12.82	23.826	15.769	46.52	0.38	12.094	8.783	-79.38		-0.82	0.000
13.09	23.904	15.673	46.45	0.38	12.134	8.851	43.08		-0.82	0.000
13.37	23.955	15.517	46.39	0.38	12.173	8.919	103.80		-0.82	0.000
13.63	24.032	15.337	46.32	0.38	12.215	8.986	195.29		-0.82	0.000
13.91	24.108	15.108	46.24	0.38	12.256	9.039	224.22		-0.82	0.000
14.19	24.159	14.856	46.19	0.38	12.314	9.088	245.62		-0.82	0.000
14.46	24.232	14.543	46.12	0.38	12.338	9.135	237.65		-0.82	0.000
14.73	24.304	14.195	46.05	0.38	12.374	9.180	238.49		-0.82	0.000
15.00	24.373	13.822	45.98	0.38	12.413	9.198	242.08		-0.82	0.000
15.27	24.421	13.401	45.93	0.38	12.439	9.232	230.78		-0.82	0.000
15.55	24.486	12.957	45.86	0.37	12.456	9.270	216.12		-0.82	0.000
15.83	24.549	12.464	45.80	0.37	12.475	9.300	176.81		-0.82	0.000
16.10	24.611	11.935	45.74	0.37	12.500	9.326	143.27		-0.82	0.000
16.37	24.649	11.370	45.70	0.37	12.509	9.354	52.74		-0.82	0.000
16.65	24.704	10.793	45.65	0.37	12.529	9.373	-7.02		-0.82	0.000
16.92	24.757	10.192	45.59	0.37	12.549	9.390	-137.51		-0.82	0.000
17.19	24.790	9.543	45.56	0.37	12.546	9.409	-184.70		-0.82	0.000
17.47	24.836	8.882	45.51	0.37	12.565	9.424	-244.22		-0.82	0.000
17.74	24.876	8.209	45.47	0.37	12.568	9.434	-268.06		-0.82	0.000
18.02	24.918	7.488	45.43	0.37	12.576	9.440	-308.13		-0.82	0.000
18.29	24.941	6.755	45.41	0.37	12.563	9.446	-320.98		-0.82	0.000
18.57	24.971	5.986	45.38	0.37	12.571	9.452	-359.27		-0.82	0.000
18.84	24.999	5.228	45.35	0.37	12.562	9.454	-380.99		-0.82	0.000
19.12	25.023	4.447	45.33	0.37	12.546	9.451	-410.51		-0.82	0.000
19.39	25.037	3.666	45.31	0.37	12.545	9.448	-405.04		-0.82	0.000
19.66	25.052	2.861	45.30	0.37	12.531	9.442	-353.27		-0.82	0.000
19.93	25.062	2.055	45.29	0.37	12.507	9.432	-315.74		-0.82	0.000
20.21	25.070	1.238	45.28	0.37	12.468	9.418	-248.69		-0.82	0.000
20.48	25.070	0.433	45.28	0.37	12.456	9.400	-225.13		-0.82	0.000
20.75	25.070	-0.373	45.28	0.37	12.434	9.392	-186.59		-0.82	0.000
21.02	25.070	-1.178	45.28	0.37	12.406	9.364	-185.64		-0.82	0.000
21.29	25.070	-1.983	45.28	0.37	12.396	9.340	-200.01		-0.82	0.000
21.56	25.070	-2.788	45.28	0.37	12.358	9.312	-206.21		-0.82	0.000
21.84	25.049	-3.582	45.30	0.37	12.335	9.288	-199.23		-0.82	0.000
22.11	25.037	-4.351	45.31	0.37	12.305	9.267	-183.90		-0.82	0.000
22.39	25.012	-5.156	45.34	0.37	12.271	9.246	-164.79		-0.82	0.000
22.67	24.982	-5.925	45.37	0.37	12.235	9.225	-176.96		-0.82	0.000
22.94	24.952	-6.683	45.40	0.37	12.168	9.194	-196.22		-0.82	0.000
23.22	24.928	-7.416	45.42	0.37	12.142	9.149	-232.99		-0.82	0.000
23.50	24.890	-8.137	45.46	0.37	12.125	9.099	-245.03		-0.82	0.000
23.77	24.846	-8.846	45.50	0.37	12.115	9.086	-230.75		-0.82	0.000
24.05	24.800	-9.519	45.55	0.37	12.094	9.059	-206.88		-0.82	0.000
24.32	24.766	-10.156	45.58	0.37	12.066	9.035	-136.72		-0.82	0.000
24.60	24.714	-10.781	45.64	0.37	11.967	9.007	-101.63		-0.82	0.000
24.88	24.659	-11.358	45.69	0.37	11.882	8.944	-24.44		-0.82	0.000
25.15	24.603	-11.923	45.75	0.37	11.800	8.861	-8.98		-0.82	0.000
25.43	24.561	-12.464	45.79	0.37	11.688	8.758	8.15		-0.82	0.000
25.70	24.498	-12.945	45.85	0.37	11.569	8.644	14.42		-0.82	0.000
25.98	24.431	-13.401	45.92	0.38	11.447	8.518	38.29		-0.82	0.000
26.25	24.362	-13.822	45.99	0.38	11.322	8.389	39.02		-0.82	0.000
26.52	24.316	-14.207	46.03	0.38	11.190	8.254	18.93		-0.82	0.000
26.80	24.243	-14.543	46.11	0.38	11.127	8.112	7.78		-0.82	0.000
27.07	24.170	-14.844	46.18	0.38	10.987	8.041	-37.28		-0.82	0.000
27.34	24.121	-15.120	46.23	0.38	10.839	7.894	-70.86		-0.82	0.000
27.63	24.044	-15.337	46.31	0.38	10.709	7.741	-140.06		-0.82	0.000
27.90	23.967	-15.529	46.38	0.38	10.560	7.593	-172.56		-0.82	0.000
28.18	23.889	-15.673	46.46	0.38	10.420	7.441	-192.06		-0.82	0.000
28.46	23.838	-15.769	46.51	0.38	10.275	7.292	-190.18		-0.82	0.000
28.73	23.757	-15.829	46.59	0.38	10.082	7.136	-185.42		-0.82	0.000
29.00	23.679	-15.841	46.67	0.38	9.875	6.981	-166.14		-0.82	0.000
29.28	23.600	-15.817	46.75	0.38	9.665	6.805	-143.83		-0.82	0.000
29.55	23.546	-15.745	46.80	0.38	9.457	6.628	-83.27		-0.82	0.000
29.83	23.468	-15.637	46.88	0.38	9.363	6.453	-45.36		-0.82	0.000
30.10	23.390	-15.481	46.96	0.38	9.171	6.285	16.05		-0.82	0.000
30.37	23.313	-15.288	47.04	0.38	8.996	6.205	24.64		-0.82	0.000
30.64	23.263	-15.048	47.09	0.38	8.816	6.050	22.11		-0.82	0.000
30.91	23.189	-14.784	47.16	0.39	8.668	5.909	3.49		-0.82	0.000
31.18	23.116	-14.471	47.23	0.39	8.501	5.777	-51.40		-0.82	0.000
31.45	23.068	-14.123	47.28	0.39	8.373	5.656	-71.89		-0.82	0.000
31.73	23.000	-13.738	47.35	0.39	8.250	5.545	-92.79		-0.82	0.000
32.00	22.931	-13.317	47.42	0.39	8.184	5.451	-92.56		-0.82	0.000
32.27	22.888	-12.849	47.46	0.39	8.087	5.372	-96.23		-0.82	0.000
32.55	22.825	-12.356	47.53	0.39	7.986	5.303	-104.75		-0.82	0.000
32.82	22.764	-11.827	47.59	0.39	7.898	5.273	-132.54		-0.82	0.000
33.09	22.707	-11.274	47.64	0.39	7.814	5.218	-140.89		-0.82	0.000
33.37	22.668	-10.685	47.68	0.39	7.754	5.167	-147.88		-0.82	0.000
33.64	22.617	-10.072	47.73	0.39	7.689	5.129	-154.00		-0.82	0.000
33.91	22.570	-9.423	47.78	0.39	7.636	5.090	-160.57		-0.82	0.000
34.19	22.523	-8.750	47.83	0.39	7.592	5.062	-161.66		-0.82	0.000
34.46	22.495	-8.065	47.85	0.39	7.553	5.036	-161.25		-0.82	0.000
34.73	22.457	-7.332	47.89	0.39	7.540	5.015	-166.25		-0.82	0.000
35.02	22.423	-6.599	47.93	0.39	7.498	4.995	-191.96		-0.82	0.000
35.28	22.404	-5.865	47.95	0.39	7.475	4.979	-225.15		-0.82	0.000
35.56	22.376	-5.072	47.97	0.39	7.452	4.963	-306.43		-0.82	0.000
35.83	22.353	-4.303	48.00	0.39	7.434	4.958	-350.10		-0.82	0.000
36.11	22.334	-3.498	48.02	0.39	7.421	4.950	-383.03		-0.82	0.000
36.38	22.325	-2.716	48.03	0.39	7.404	4.944	-367.11		-0.82	0.000
36.65	22.313	-1.899	48.04	0.39	7.417	4.941	-291.76		-0.82	0.000
36.92	22.311	-1.082	48.04	0.39	7.407	4.940	-251.19		-0.82	0.000
37.19	22.308	-0.276	48.04	0.39	7.418	4.941	-215.08		-0.82	0.000
37.46	22.307	0.517	48.04	0.39	7.418	4.943	-220.56		-0.82	0.000
37.73	22.307	1.334	48.04	0.39	7.420	4.949	-248.36		-0.82	0.000
38.00	22.307	2.115	48.04	0.39	7.432	4.952	-258.42		-0.82	0.000
38.27	22.308	2.921	48.04	0.39	7.437	4.953	-231.09		-0.82	0.000
38.53	22.329	3.690	48.02	0.39	7.440	4.960	-203.48		-0.82	0.000
38.81	22.349	4.483	48.00	0.39	7.434	4.964	-133.60		-0.82	0.000
39.08	22.367	5.240	47.98	0.39	7.447	4.966	-115.85		-0.82	0.000
39.35	22.395	6.010	47.95	0.39	7.448	4.969	-118.66		-0.82	0.000
39.62	22.427	6.743	47.92	0.39	7.446	4.971	-129.76		-0.82	0.000
39.90	22.450	7.476	47.90	0.39	7.454	4.973	-123.95		-0.82	0.000
40.18	22.490	8.185	47.86	0.39	7.447	4.976	-96.40		-0.82	0.000
40.44	22.532	8.882	47.82	0.39	7.465	4.978	-21.54		-0.82	0.000
40.71	22.580	9.543	47.77	0.39	7.481	4.979	17.16		-0.82	0.000
40.99	22.613	10.168	47.74	0.39	7.501	4.987	87.86		-0.82	0.000
41.26	22.666	10.769	47.68	0.39	7.528	4.999	118.04		-0.82	0.000
41.53	22.721	11.358	47.63	0.39	7.542	5.011	171.25		-0.82	0.000
41.80	22.759	11.911	47.59	0.39	7.572	5.031	190.00		-0.82	0.000
42.07	22.821	12.428	47.53	0.39	7.587	5.045	190.83		-0.82	0.000
42.34	22.884	12.921	47.47	0.39	7.627	5.065	175.73		-0.82	0.000
42.61	22.927	13.365	47.42	0.39	7.657	5.085	113.01		-0.82	0.000
42.88	22.995	13.786	47.35	0.39	7.694	5.106	66.89		-0.82	0.000
43.16	23.064	14.159	47.29	0.39	7.732	5.118	-40.12		-0.82	0.000
43.43	23.113	14.507	47.24	0.39	7.773	5.144	-83.32		-0.82	0.000
43.70	23.185	14.820	47.17	0.39	7.809	5.172	-141.08		-0.82	0.000
43.97	23.261	15.084	47.09	0.38	7.855	5.202	-160.22		-0.82	0.000
44.24	23.336	15.312	47.01	0.38	7.913	5.239	-187.23		-0.82	0.000
44.52	23.388	15.505	46.96	0.38	7.979	5.278	-197.88		-0.82	0.000
44.80	23.467	15.649	46.88	0.38	8.047	5.321	-198.90		-0.82	0.000
45.06	23.544	15.757	46.81	0.38	8.126	5.376	-176.37		-0.82	0.000
45.34	23.596	15.817	46.75	0.38	8.258	5.435	-108.06		-0.82	0.000
45.61	23.676	15.841	46.67	0.38	8.397	5.520	-72.42		-0.82	0.000
45.88	23.755	15.829	46.59	0.38	8.533	5.570	-5.75		-0.82	0.000
46.15	23.835	15.769	46.52	0.38	8.614	5.675	28.29		-0.82	0.000
46.42	23.886	15.661	46.46	0.38	8.780	5.795	81.13		-0.82	0.000
46.69	23.966	15.529	46.38	0.38	8.914	5.924	105.29		-0.82	0.000
46.97	24.043	15.337	46.31	0.38	9.093	6.060	140.99		-0.82	0.000
47.23	24.094	15.120	46.26	0.38	9.269	6.208	138.52		-0.82	0.000
47.51	24.167	14.856	46.18	0.38	9.457	6.364	109.17		-0.82	0.000
47.78	24.241	14.555	46.11	0.38	9.637	6.524	85.79		-0.82	0.000
48.05	24.290	14.207	46.06	0.38	9.827	6.696	32.23		-0.82	0.000
48.32	24.362	13.834	45.99	0.38	9.927	6.783	18.47		-0.82	0.000
48.59	24.427	13.425	45.92	0.38	10.125	6.955	3.08		-0.82	0.000
48.85	24.494	12.981	45.86	0.37	10.306	7.140	5.05		-0.82	0.000
49.12	24.537	12.512	45.81	0.37	10.491	7.316	8.34		-0.82	0.000
49.39	24.598	11.995	45.75	0.37	10.675	7.490	2.50		-0.82	0.000
49.67	24.657	11.454	45.69	0.37	10.831	7.659	-9.33		-0.82	0.000
49.94	24.694	10.889	45.66	0.37	10.990	7.818	-14.78		-0.82	0.000
50.21	24.746	10.276	45.60	0.37	11.137	7.967	13.67		-0.82	0.000
50.48	24.796	9.651	45.55	0.37	11.201	8.042	35.52		-0.82	0.000
50.75	24.828	8.990	45.52	0.37	11.347	8.180	38.25		-0.82	0.000
51.02	24.871	8.317	45.48	0.37	11.455	8.309	32.35		-0.82	0.000
51.30	24.911	7.608	45.44	0.37	11.556	8.425	13.14		-0.82	0.000
51.56	24.934	6.887	45.42	0.37	11.660	8.527	0.91		-0.82	0.000
51.84	24.968	6.154	45.38	0.37	11.746	8.621	-41.84		-0.82	0.000
52.11	24.995	5.421	45.35	0.37	11.804	8.704	-60.31		-0.82	0.000
52.38	25.021	4.639	45.33	0.37	11.867	8.776	-70.65		-0.82	0.000
52.65	25.034	3.858	45.32	0.37	11.889	8.833	-71.05		-0.82	0.000
52.92	25.050	3.053	45.30	0.37	11.929	8.857	-72.62		-0.82	0.000
53.19	25.061	2.260	45.29	0.37	11.958	8.899	-81.84		-0.82	0.000
53.47	25.067	1.454	45.28	0.37	11.980	8.925	-92.90		-0.82	0.000
53.74	25.071	0.649	45.28	0.37	11.968	8.945	-93.81		-0.82	0.000
54.01	25.072	-0.168	45.28	0.37	11.981	8.949	-90.16		-0.82	0.000
54.27	25.072	-0.962	45.28	0.37	11.966	8.949	-86.87		-0.82	0.000
54.55	25.072	-1.767	45.28	0.37	11.950	8.941	-83.78		-0.82	0.000
54.82	25.072	-2.548	45.28	0.37	11.944	8.931	-82.93		-0.82	0.000
55.10	25.057	-3.377	45.29	0.37	11.943	8.916	-115.68		-0.82	0.000
55.37	25.044	-4.159	45.31	0.37	11.919	8.905	-140.81		-0.82	0.000
55.65	25.020	-4.940	45.33	0.37	11.898	8.899	-178.32		-0.82	0.000
55.93	24.993	-5.721	45.36	0.37	11.877	8.885	-187.95		-0.82	0.000
56.21	24.962	-6.490	45.39	0.37	11.834	8.867	-199.99		-0.82	0.000
56.48	24.939	-7.236	45.41	0.37	11.804	8.838	-214.53		-0.82	0.000
56.76	24.900	-7.957	45.45	0.37	11.789	8.796	-224.34		-0.82	0.000
57.04	24.859	-8.666	45.49	0.37	11.775	8.765	-218.14		-0.82	0.000
57.32	24.813	-9.351	45.54	0.37	11.752	8.741	-202.10		-0.82	0.000
57.60	24.781	-10.012	45.57	0.37	11.703	8.718	-161.91		-0.82	0.000
57.87	24.730	-10.637	45.62	0.37	11.624	8.684	-146.33		-0.82	0.000
58.15	24.676	-11.238	45.67	0.37	11.538	8.617	-125.13		-0.82	0.000
58.43	24.617	-11.803	45.73	0.37	11.491	8.533	-129.98		-0.82	0.000
58.71	24.555	-12.344	45.79	0.37	11.380	8.431	-166.90		-0.82	0.000
58.99	24.516	-12.849	45.83	0.37	11.265	8.313	-184.93		-0.82	0.000
59.27	24.449	-13.329	45.90	0.38	11.151	8.190	-178.56		-0.82	0.000
59.54	24.381	-13.750	45.97	0.38	11.028	8.058	-156.62		-0.82	0.000
59.83	24.311	-14.159	46.04	0.38	10.900	7.990	-96.28		-0.82	0.000
60.10	24.264	-14.495	46.09	0.38	10.766	7.851	-79.61		-0.82	0.000
60.37	24.190	-14.820	46.16	0.38	10.627	7.709	-75.89		-0.82	0.000
60.65	24.116	-15.084	46.23	0.38	10.496	7.563	-99.32		-0.82	0.000
60.93	24.039	-15.312	46.31	0.38	10.355	7.417	-106.66		-0.82	0.000
61.20	23.988	-15.505	46.36	0.38	10.215	7.272	-118.82		-0.82	0.000
61.48	23.909	-15.661	46.44	0.38	10.072	7.123	-111.55		-0.82	0.000
61.76	23.832	-15.757	46.52	0.38	9.939	6.979	-100.87		-0.82	0.000
62.03	23.752	-15.829	46.60	0.38	9.843	6.840	-95.47		-0.82	0.000
62.30	23.700	-15.841	46.65	0.38	9.620	6.695	-106.54		-0.82	0.000
62.58	23.622	-15.817	46.73	0.38	9.415	6.524	-120.22		-0.82	0.000
62.86	23.541	-15.757	46.81	0.38	9.227	6.352	-155.40		-0.82	0.000
63.13	23.463	-15.649	46.89	0.38	9.028	6.187	-182.03		-0.82	0.000
63.40	23.412	-15.493	46.94	0.38	8.846	6.107	-232.22		-0.82	0.000
63.68	23.334	-15.312	47.02	0.38	8.689	5.957	-254.89		-0.82	0.000
63.96	23.259	-15.072	47.09	0.39	8.521	5.816	-285.45		-0.82	0.000
64.23	23.209	-14.808	47.14	0.39	8.379	5.683	-293.25		-0.82	0.000
64.51	23.135	-14.495	47.22	0.39	8.239	5.567	-313.64		-0.82	0.000
64.78	23.064	-14.147	47.29	0.39	8.173	5.460	-331.65		-0.82	0.000
65.05	22.994	-13.750	47.36	0.39	8.058	5.365	-376.24		-0.82	0.000
65.33	22.948	-13.329	47.40	0.39	7.964	5.283	-394.25		-0.82	0.000
65.60	22.882	-12.861	47.47	0.39	7.865	5.210	-394.21		-0.82	0.000
65.88	22.821	-12.368	47.53	0.39	7.786	5.148	-372.02		-0.82	0.000
66.15	22.762	-11.839	47.59	0.39	7.714	5.094	-278.84		-0.82	0.000
66.43	22.721	-11.274	47.63	0.39	7.650	5.069	-217.63		-0.82	0.000
66.70	22.666	-10.685	47.68	0.39	7.589	5.027	-95.84		-0.82	0.000
66.98	22.614	-10.072	47.74	0.39	7.548	4.988	-51.14		-0.82	0.000
67.25	22.567	-9.411	47.78	0.39	7.501	4.961	0.88		-0.82	0.000
67.52	22.536	-8.750	47.81	0.39	7.488	4.936	19.86		-0.82	0.000
67.79	22.495	-8.053	47.85	0.39	7.462	4.914	50.79		-0.82	0.000
68.06	22.457	-7.356	47.89	0.39	7.422	4.896	73.61		-0.82	0.000
68.33	22.434	-6.623	47.92	0.39	7.406	4.883	59.96		-0.82	0.000
68.61	22.403	-5.877	47.95	0.39	7.379	4.872	-19.74		-0.82	0.000
68.88	22.375	-5.108	47.98	0.39	7.359	4.862	-73.42		-0.82	0.000
69.15	22.364	-4.339	47.99	0.39	7.353	4.856	-160.03		-0.82	0.000
69.42	22.343	-3.546	48.01	0.39	7.340	4.850	-187.23		-0.82	0.000
69.69	22.326	-2.764	48.02	0.39	7.339	4.846	-210.30		-0.82	0.000
69.96	22.314	-1.971	48.04	0.39	7.330	4.845	-213.73		-0.82	0.000
70.23	22.312	-1.166	48.04	0.39	7.330	4.843	-199.46		-0.82	0.000
70.50	22.309	-0.349	48.04	0.39	7.335	4.845	-177.96		-0.82	0.000
70.77	22.308	0.445	48.04	0.39	7.340	4.847	-162.67		-0.82	0.000
71.04	22.308	1.250	48.04	0.39	7.344	4.852	-136.36		-0.82	0.000
71.30	22.308	2.043	48.04	0.39	7.349	4.855	-119.41		-0.82	0.000
71.58	22.313	2.849	48.04	0.39	7.362	4.859	-83.27		-0.82	0.000
71.85	22.322	3.618	48.03	0.39	7.349	4.862	-66.61		-0.82	0.000
72.12	22.347	4.411	48.00	0.39	7.353	4.864	-82.47		-0.82	0.000
72.39	22.371	5.180	47.98	0.39	7.363	4.865	-107.79		-0.82	0.000
72.66	22.388	5.950	47.96	0.39	7.357	4.866	-184.11		-0.82	0.000
72.93	22.421	6.683	47.93	0.39	7.367	4.870	-212.22		-0.82	0.000
73.21	22.457	7.404	47.89	0.39	7.376	4.874	-264.69		-0.82	0.000
73.48	22.497	8.113	47.85	0.39	7.387	4.877	-289.51		-0.82	0.000
73.75	22.523	8.822	47.83	0.39	7.374	4.878	-342.21		-0.82	0.000
74.02	22.571	9.471	47.78	0.39	7.398	4.880	-365.76		-0.82	0.000
74.30	22.621	10.108	47.73	0.39	7.395	4.885	-401.17		-0.82	0.000
74.57	22.654	10.721	47.70	0.39	7.405	4.890	-407.23		-0.82	0.000
74.85	22.708	11.310	47.64	0.39	7.441	4.902	-399.98		-0.82	0.000
75.12	22.768	11.875	47.58	0.39	7.455	4.913	-389.94		-0.82	0.000
75.39	22.829	12.404	47.52	0.39	7.479	4.930	-382.66		-0.82	0.000
75.67	22.870	12.885	47.48	0.39	7.501	4.945	-374.79		-0.82	0.000
75.94	22.935	13.353	47.42	0.39	7.537	4.958	-359.25		-0.82	0.000
76.21	23.005	13.762	47.34	0.39	7.558	4.973	-313.37		-0.82	0.000
76.49	23.050	14.147	47.30	0.39	7.578	4.984	-278.78		-0.82	0.000
76.76	23.122	14.507	47.23	0.39	7.613	5.005	-197.26		-0.82	0.000
77.03	23.195	14.808	47.15	0.39	7.647	5.024	-156.46		-0.82	0.000
77.31	23.271	15.084	47.08	0.38	7.701	5.050	-91.59		-0.82	0.000
77.58	23.320	15.312	47.03	0.38	7.739	5.079	-73.40		-0.82	0.000
77.85	23.399	15.505	46.95	0.38	7.789	5.110	-49.40		-0.82	0.000
78.12	23.477	15.649	46.87	0.38	7.852	5.146	-38.75		-0.82	0.000
78.38	23.527	15.757	46.82	0.38	7.953	5.187	-0.21		-0.82	0.000
78.65	23.607	15.817	46.74	0.38	8.002	5.244	15.25		-0.82	0.000
78.92	23.686	15.841	46.66	0.38	8.110	5.277	14.12		-0.82	0.000
79.19	23.739	15.829	46.61	0.38	8.231	5.352	1.93		-0.82	0.000
79.46	23.817	15.769	46.53	0.38	8.352	5.438	-31.54		-0.82	0.000
79.73	23.896	15.673	46.45	0.38	8.481	5.535	-46.94		-0.82	0.000
80.00	23.949	15.541	46.40	0.38	8.622	5.642	-61.27		-0.82	0.000
80.27	24.025	15.361	46.33	0.38	8.778	5.756	-69.31		-0.82	0.000
80.54	24.102	15.144	46.25	0.38	8.942	5.883	-38.79		-0.82	0.000
80.82	24.177	14.880	46.17	0.38	9.025	6.021	-13.11		-0.82	0.000
81.08	24.225	14.579	46.13	0.38	9.206	6.169	15.43		-0.82	0.000
81.35	24.298	14.243	46.05	0.38	9.382	6.249	42.22		-0.82	0.000
81.62	24.368	13.882	45.98	0.38	9.564	6.406	48.35		-0.82	0.000
81.89	24.414	13.474	45.94	0.38	9.750	6.573	27.86		-0.82	0.000
82.15	24.480	13.029	45.87	0.38	9.928	6.742	9.85		-0.82	0.000
82.43	24.544	12.572	45.81	0.37	10.114	6.912	-32.40		-0.82	0.000
82.69	24.585	12.067	45.77	0.37	10.278	7.082	-49.90		-0.82	0.000
82.97	24.644	11.526	45.71	0.37	10.363	7.245	-62.01		-0.82	0.000
83.24	24.700	10.962	45.65	0.37	10.523	7.404	-63.66		-0.82	0.000
83.52	24.736	10.349	45.61	0.37	10.674	7.481	-65.99		-0.82	0.000
83.79	24.787	9.724	45.56	0.37	10.821	7.631	-65.96		-0.82	0.000
84.06	24.834	9.050	45.52	0.37	10.953	7.772	-64.67		-0.82	0.000
84.34	24.875	8.377	45.48	0.37	11.081	7.904	-62.72		-0.82	0.000
84.61	24.903	7.668	45.45	0.37	11.190	8.028	-78.14		-0.82	0.000
84.88	24.940	6.947	45.41	0.37	11.287	8.140	-83.66		-0.82	0.000
85.16	24.971	6.214	45.38	0.37	11.379	8.241	-86.65		-0.82	0.000
85.43	24.990	5.457	45.36	0.37	11.411	8.330	-76.75		-0.82	0.000
85.70	25.016	4.675	45.33	0.37	11.487	8.408	-84.62		-0.82	0.000
85.97	25.036	3.894	45.31	0.37	11.537	8.473	-145.38		-0.82	0.000
86.25	25.052	3.101	45.30	0.37	11.583	8.501	-187.07		-0.82	0.000
86.52	25.059	2.296	45.29	0.37	11.622	8.552	-251.50		-0.82	0.000
86.80	25.067	1.478	45.28	0.37	11.637	8.589	-267.81		-0.82	0.000
87.07	25.075	0.661	45.28	0.37	11.662	8.618	-271.58		-0.82	0.000
87.33	25.075	-0.144	45.28	0.37	11.646	8.635	-259.06		-0.82	0.000
87.60	25.075	-0.950	45.28	0.37	11.657	8.641	-225.27		-0.82	0.000
87.87	25.075	-1.743	45.28	0.37	11.652	8.639	-214.62		-0.82	0.000
88.14	25.075	-2.548	45.28	0.37	11.639	8.630	-230.91		-0.82	0.000
88.42	25.061	-3.329	45.29	0.37	11.636	8.622	-236.47		-0.82	0.000
88.70	25.041	-4.111	45.31	0.37	11.616	8.613	-207.19		-0.82	0.000
88.98	25.020	-4.916	45.33	0.37	11.598	8.609	-172.30		-0.82	0.000
89.25	24.990	-5.697	45.36	0.37	11.570	8.596	-108.71		-0.82	0.000
89.53	24.972	-6.466	45.38	0.37	11.532	8.582	-93.37		-0.82	0.000
89.80	24.936	-7.212	45.41	0.37	11.499	8.552	-85.64		-0.82	0.000
90.08	24.898	-7.933	45.45	0.37	11.490	8.509	-81.80		-0.82	0.000
90.36	24.857	-8.630	45.49	0.37	11.474	8.477	-53.52		-0.82	0.000
90.63	24.826	-9.327	45.52	0.37	11.459	8.454	-23.73		-0.82	0.000
90.90	24.776	-9.988	45.57	0.37	11.439	8.432	58.60		-0.82	0.000
91.18	24.726	-10.601	45.62	0.37	11.352	8.398	104.56		-0.82	0.000
91.45	24.690	-11.178	45.66	0.37	11.279	8.337	168.08		-0.82	0.000
91.73	24.634	-11.755	45.72	0.37	11.184	8.253	187.24		-0.82	0.000
92.00	24.572	-12.284	45.78	0.37	11.074	8.150	218.52		-0.82	0.000
92.28	24.509	-12.788	45.84	0.37	10.955	8.094	241.81		-0.82	0.000
92.55	24.467	-13.257	45.88	0.38	10.838	7.970	298.72		-0.82	0.000
92.83	24.398	-13.690	45.95	0.38	10.712	7.841	321.68		-0.82	0.000
93.11	24.329	-14.087	46.02	0.38	10.574	7.704	307.35		-0.82	0.000
93.37	24.258	-14.435	46.09	0.38	10.516	7.564	280.88		-0.82	0.000
93.65	24.208	-14.760	46.14	0.38	10.370	7.420	223.09		-0.82	0.000
93.92	24.136	-15.036	46.21	0.38	10.236	7.274	195.20		-0.82	0.000
94.20	24.059	-15.276	46.29	0.38	10.092	7.127	153.89		-0.82	0.000
94.47	24.009	-15.469	46.34	0.38	9.954	6.981	98.60		-0.82	0.000
94.75	23.931	-15.625	46.42	0.38	9.822	6.840	69.74		-0.82	0.000
95.01	23.852	-15.745	46.50	0.38	9.676	6.700	16.02		-0.82	0.000
95.29	23.772	-15.817	46.58	0.38	9.522	6.631	-4.18		-0.82	0.000
95.56	23.721	-15.841	46.63	0.38	9.294	6.499	-47.84		-0.82	0.000
95.84	23.640	-15.829	46.71	0.38	9.207	6.349	-60.07		-0.82	0.000
96.11	23.563	-15.781	46.79	0.38	9.027	6.187	-64.72		-0.82	0.000
96.38	23.509	-15.685	46.84	0.38	8.828	6.031	-64.16		-0.82	0.000
96.66	23.431	-15.553	46.92	0.38	8.671	5.881	-66.88		-0.82	0.000
96.93	23.354	-15.373	47.00	0.38	8.510	5.740	-76.74		-0.82	0.000
97.20	23.279	-15.144	47.07	0.38	8.368	5.615	-92.71		-0.82	0.000
97.47	23.227	-14.892	47.12	0.39	8.230	5.496	-93.21		-0.82	0.000
97.75	23.154	-14.591	47.20	0.39	8.101	5.393	-86.15		-0.82	0.000
98.02	23.084	-14.255	47.27	0.39	7.983	5.344	-78.29		-0.82	0.000
98.30	23.011	-13.882	47.34	0.39	7.880	5.251	-55.55		-0.82	0.000
98.57	22.967	-13.474	47.38	0.39	7.833	5.171	-33.82		-0.82	0.000
98.85	22.900	-13.017	47.45	0.39	7.743	5.098	21.00		-0.82	0.000
99.11	22.836	-12.536	47.51	0.39	7.674	5.037	40.21		-0.82	0.000
99.38	22.795	-12.019	47.55	0.39	7.601	4.982	37.83		-0.82	0.000
99.66	22.736	-11.478	47.61	0.39	7.539	4.936	18.66		-0.82	0.000
99.92	22.681	-10.913	47.67	0.39	7.499	4.902	-17.24		-0.82	0.000
100.20	22.645	-10.300	47.70	0.39	7.453	4.869	-42.52		-0.82	0.000
100.47	22.595	-9.688	47.75	0.39	7.415	4.848	-91.71		-0.82	0.000
100.75	22.548	-9.014	47.80	0.39	7.400	4.837	-123.26		-0.82	0.000
101.02	22.507	-8.341	47.84	0.39	7.368	4.816	-183.12		-0.82	0.000
101.30	22.479	-7.608	47.87	0.39	7.341	4.803	-212.32		-0.82	0.000
101.57	22.443	-6.887	47.91	0.39	7.316	4.788	-259.66		-0.82	0.000
101.84	22.411	-6.142	47.94	0.39	7.301	4.780	-275.99		-0.82	0.000
102.12	22.382	-5.385	47.97	0.39	7.275	4.769	-266.89		-0.82	0.000
102.40	22.367	-4.615	47.98	0.39	7.279	4.763	-240.88		-0.82	0.000
102.67	22.349	-3.810	48.00	0.39	7.259	4.757	-180.16		-0.82	0.000
102.95	22.331	-3.005	48.02	0.39	7.248	4.755	-151.41		-0.82	0.000
103.22	22.321	-2.200	48.03	0.39	7.242	4.754	-91.40		-0.82	0.000
103.49	22.313	-1.382	48.04	0.39	7.257	4.751	-65.20		-0.82	0.000
103.76	22.311	-0.577	48.04	0.39	7.255	4.749	-25.55		-0.82	0.000
104.03	22.308	0.240	48.04	0.39	7.262	4.752	-22.53		-0.82	0.000
104.30	22.308	1.034	48.04	0.39	7.264	4.753	-34.61		-0.82	0.000
104.56	22.308	1.839	48.04	0.39	7.256	4.757	-44.53		-0.82	0.000
104.83	22.309	2.632	48.04	0.39	7.277	4.761	-54.94		-0.82	0.000
105.10	22.322	3.401	48.03	0.39	7.276	4.769	-58.16		-0.82	0.000
105.37	22.341	4.171	48.01	0.39	7.271	4.772	-71.02		-0.82	0.000
105.64	22.366	4.940	47.98	0.39	7.285	4.773	-65.76		-0.82	0.000
105.91	22.384	5.697	47.97	0.39	7.279	4.776	-44.70		-0.82	0.000
106.18	22.413	6.454	47.94	0.39	7.282	4.778	-25.31		-0.82	0.000
106.45	22.449	7.188	47.90	0.39	7.284	4.779	25.56		-0.82	0.000
106.72	22.475	7.897	47.88	0.39	7.287	4.780	53.31		-0.82	0.000
106.99	22.514	8.594	47.84	0.39	7.285	4.780	100.05		-0.82	0.000
107.26	22.561	9.255	47.79	0.39	7.298	4.783	113.74		-0.82	0.000
107.54	22.593	9.892	47.76	0.39	7.305	4.788	124.19		-0.82	0.000
107.80	22.643	10.505	47.71	0.39	7.312	4.794	118.42		-0.82	0.000
108.08	22.697	11.118	47.65	0.39	7.339	4.799	96.39		-0.82	0.000
108.35	22.754	11.659	47.60	0.39	7.351	4.810	82.45		-0.82	0.000
108.61	22.794	12.200	47.56	0.39	7.372	4.823	50.45		-0.82	0.000
108.88	22.855	12.704	47.49	0.39	7.392	4.835	26.19		-0.82	0.000
109.15	22.922	13.161	47.43	0.39	7.414	4.849	-54.12		-0.82	0.000
109.43	22.964	13.594	47.39	0.39	7.445	4.866	-102.03		-0.82	0.000
109.70	23.035	13.990	47.32	0.39	7.456	4.882	-183.64		-0.82	0.000
109.97	23.104	14.351	47.25	0.39	7.492	4.900	-203.82		-0.82	0.000
110.25	23.153	14.675	47.20	0.39	7.526	4.919	-247.56		-0.82	0.000
110.52	23.227	14.964	47.12	0.39	7.561	4.928	-276.97		-0.82	0.000
110.79	23.304	15.216	47.05	0.38	7.604	4.951	-340.43		-0.82	0.000
111.07	23.380	15.421	46.97	0.38	7.640	4.978	-359.60		-0.82	0.000
111.34	23.431	15.589	46.92	0.38	7.694	5.008	-338.55		-0.82	0.000
111.61	23.511	15.709	46.84	0.38	7.770	5.038	-315.05		-0.82	0.000
111.88	23.588	15.793	46.76	0.38	7.848	5.078	-240.31		-0.82	0.000
112.15	23.641	15.841	46.71	0.38	7.906	5.133	-197.39		-0.82	0.000
112.42	23.720	15.841	46.63	0.38	8.002	5.197	-115.37		-0.82	0.000
112.70	23.799	15.793	46.55	0.38	8.110	5.272	-89.20		-0.82	0.000
112.97	23.879	15.721	46.47	0.38	8.231	5.356	-73.97		-0.82	0.000
113.24	23.930	15.589	46.42	0.38	8.347	5.400	-68.66		-0.82	0.000
113.51	24.009	15.421	46.34	0.38	8.485	5.497	-32.73		-0.82	0.000
113.78	24.085	15.216	46.27	0.38	8.633	5.601	-9.80		-0.82	0.000
114.05	24.134	14.976	46.22	0.38	8.786	5.719	-8.63		-0.82	0.000
114.33	24.209	14.687	46.14	0.38	8.957	5.844	-35.33		-0.82	0.000
114.60	24.282	14.375	46.07	0.38	9.042	5.987	-122.50		-0.82	0.000
114.87	24.329	14.002	46.02	0.38	9.206	6.138	-171.18		-0.82	0.000
115.15	24.398	13.606	45.95	0.38	9.389	6.298	-269.54		-0.82	0.000
115.42	24.466	13.173	45.88	0.38	9.562	6.460	-317.25		-0.82	0.000
115.70	24.529	12.704	45.82	0.37	9.738	6.540	-397.43		-0.82	0.000
115.97	24.572	12.200	45.78	0.37	9.917	6.703	-412.93		-0.82	0.000
116.25	24.631	11.647	45.72	0.37	10.067	6.867	-423.46		-0.82	0.000
116.52	24.687	11.070	45.66	0.37	10.227	7.027	-423.82		-0.82	0.000
116.80	24.740	10.469	45.61	0.37	10.379	7.183	-435.85		-0.82	0.000
117.07	24.776	9.844	45.57	0.37	10.527	7.331	-447.57		-0.82	0.000
117.35	24.822	9.183	45.53	0.37	10.591	7.470	-453.13		-0.82	0.000
117.62	24.866	8.510	45.48	0.37	10.721	7.601	-453.80		-0.82	0.000
117.89	24.907	7.800	45.44	0.37	10.839	7.727	-427.85		-0.82	0.000
118.17	24.931	7.079	45.42	0.37	10.944	7.841	-370.49		-0.82	0.000
118.44	24.964	6.346	45.39	0.37	11.049	7.947	-344.15		-0.82	0.000
118.71	24.991	5.589	45.36	0.37	11.125	7.994	-310.02		-0.82	0.000
118.99	25.012	4.820	45.34	0.37	11.194	8.079	-309.65		-0.82	0.000
119.26	25.032	4.026	45.32	0.37	11.246	8.154	-309.19		-0.82	0.000
119.54	25.048	3.221	45.30	0.37	11.292	8.218	-311.63		-0.82	0.000
119.81	25.063	2.416	45.29	0.37	11.314	8.272	-304.34		-0.82	0.000
120.08	25.067	1.611	45.28	0.37	11.340	8.312	-300.13		-0.82	0.000
120.35	25.071	0.781	45.28	0.37	11.358	8.344	-266.00		-0.82	0.000
120.62	25.072	0.000	45.28	0.37	11.365	8.358	-244.43		-0.82	0.000
120.89	25.072	-0.817	45.28	0.37	11.361	8.363	-197.91		-0.82	0.000
121.16	25.072	-1.623	45.28	0.37	11.357	8.362	-171.41		-0.82	0.000
121.44	25.063	-2.416	45.29	0.37	11.355	8.358	-97.03		-0.82	0.000
121.71	25.046	-3.209	45.30	0.37	11.348	8.353	-55.40		-0.82	0.000
121.98	25.037	-4.002	45.31	0.37	11.325	8.348	9.19		-0.82	0.000
122.26	25.012	-4.796	45.34	0.37	11.335	8.340	7.08		-0.82	0.000
122.53	24.986	-5.565	45.36	0.37	11.294	8.330	-7.00		-0.82	0.000
122.80	24.966	-6.322	45.38	0.37	11.257	8.317	-9.72		-0.82	0.000
123.08	24.934	-7.055	45.42	0.37	11.238	8.282	-3.81		-0.82	0.000
123.35	24.895	-7.776	45.45	0.37	11.219	8.240	-2.48		-0.82	0.000
123.63	24.854	-8.486	45.50	0.37	11.197	8.213	-20.06		-0.82	0.000
123.91	24.823	-9.159	45.53	0.37	11.182	8.191	-47.78		-0.82	0.000
124.18	24.777	-9.832	45.57	0.37	11.154	8.166	-107.80		-0.82	0.000
124.46	24.726	-10.457	45.62	0.37	11.057	8.155	-139.39		-0.82	0.000
124.74	24.671	-11.070	45.68	0.37	11.000	8.106	-203.74		-0.82	0.000
125.02	24.635	-11.647	45.72	0.37	10.886	8.030	-214.61		-0.82	0.000
125.29	24.573	-12.200	45.78	0.37	10.842	7.931	-203.74		-0.82	0.000
125.57	24.513	-12.704	45.84	0.37	10.735	7.816	-196.85		-0.82	0.000
125.85	24.448	-13.173	45.90	0.38	10.594	7.693	-202.05		-0.82	0.000
126.13	24.402	-13.618	45.95	0.38	10.475	7.566	-230.98		-0.82	0.000
126.41	24.332	-14.026	46.02	0.38	10.351	7.427	-243.78		-0.82	0.000
126.68	24.262	-14.399	46.09	0.38	10.205	7.284	-239.51		-0.82	0.000
126.97	24.189	-14.724	46.16	0.38	10.055	7.143	-221.22		-0.82	0.000
127.24	24.114	-15.012	46.24	0.38	9.935	7.001	-170.43		-0.82	0.000
127.52	24.064	-15.264	46.29	0.38	9.800	6.852	-140.82		-0.82	0.000
127.79	23.988	-15.457	46.36	0.38	9.658	6.714	-78.90		-0.82	0.000
128.06	23.909	-15.613	46.44	0.38	9.518	6.578	-57.25		-0.82	0.000
128.34	23.858	-15.733	46.49	0.38	9.394	6.509	-25.15		-0.82	0.000
128.61	23.780	-15.805	46.57	0.38	9.313	6.381	-6.71		-0.82	0.000
128.88	23.699	-15.841	46.65	0.38	9.107	6.254	36.71		-0.82	0.000
129.15	23.621	-15.829	46.73	0.38	8.933	6.108	50.95		-0.82	0.000
129.42	23.567	-15.781	46.78	0.38	8.750	5.956	55.87		-0.82	0.000
129.69	23.489	-15.697	46.86	0.38	8.577	5.813	46.84		-0.82	0.000
129.96	23.412	-15.565	46.94	0.38	8.426	5.672	13.27		-0.83	0.000
130.23	23.359	-15.385	46.99	0.38	8.271	5.546	-9.31		-0.83	0.000
130.50	23.284	-15.180	47.07	0.38	8.142	5.432	-68.20		-0.83	0.000
130.78	23.207	-14.928	47.14	0.39	8.086	5.378	-115.19		-0.83	0.000
131.05	23.157	-14.627	47.19	0.39	7.963	5.277	-185.66		-0.83	0.000
131.32	23.088	-14.291	47.26	0.39	7.862	5.188	-210.43		-0.83	0.000
131.60	23.016	-13.930	47.33	0.39	7.758	5.106	-234.68		-0.83	0.000
131.88	22.948	-13.522	47.40	0.39	7.674	5.038	-240.43		-0.83	0.000
132.15	22.903	-13.065	47.45	0.39	7.596	4.977	-223.86		-0.83	0.000
132.42	22.839	-12.584	47.51	0.39	7.533	4.922	-207.74		-0.83	0.000
132.70	22.777	-12.067	47.57	0.39	7.474	4.877	-192.19		-0.83	0.000
132.97	22.718	-11.526	47.63	0.39	7.426	4.841	-181.83		-0.83	0.000
133.25	22.681	-10.950	47.67	0.39	7.384	4.811	-156.37		-0.83	0.000
133.52	22.627	-10.349	47.72	0.39	7.361	4.782	-133.35		-0.83	0.000
133.80	22.577	-9.700	47.77	0.39	7.334	4.763	-69.06		-0.83	0.000
134.07	22.530	-9.050	47.82	0.39	7.305	4.752	-33.27		-0.83	0.000
134.34	22.502	-8.353	47.85	0.39	7.295	4.739	15.31		-0.83	0.000
134.61	22.463	-7.656	47.89	0.39	7.247	4.725	14.67		-0.83	0.000
134.88	22.427	-6.947	47.92	0.39	7.221	4.716	-14.07		-0.83	0.000
135.15	22.403	-6.214	47.95	0.39	7.231	4.705	-41.30		-0.83	0.000
135.43	22.375	-5.445	47.98	0.39	7.216	4.700	-87.16		-0.83	0.000
135.70	22.353	-4.688	48.00	0.39	7.189	4.689	-111.51		-0.83	0.000
135.98	22.330	-3.882	48.02	0.39	7.199	4.685	-149.74		-0.83	0.000
136.25	22.321	-3.089	48.03	0.39	7.185	4.682	-182.56		-0.83	0.000
136.52	22.311	-2.272	48.04	0.39	7.175	4.681	-192.09		-0.83	0.000
136.80	22.300	-1.466	48.05	0.39	7.189	4.681	-187.56		-0.83	0.000
137.07	22.297	-0.661	48.05	0.39	7.192	4.681	-179.60		-0.83	0.000
137.32	22.297	0.144	48.05	0.39	7.187	4.683	-158.87		-0.83	0.000
137.60	22.297	0.950	48.05	0.39	7.195	4.685	-99.78		-0.83	0.000
137.86	22.297	1.719	48.05	0.39	7.203	4.688	-61.25		-0.83	0.000
138.13	22.297	2.536	48.05	0.39	7.197	4.691	23.19		-0.83	0.000
138.40	22.308	3.305	48.04	0.39	7.208	4.696	46.86		-0.83	0.000
138.67	22.323	4.087	48.03	0.39	7.208	4.698	74.92		-0.83	0.000
138.94	22.347	4.856	48.00	0.39	7.209	4.701	68.04		-0.83	0.000
139.20	22.373	5.613	47.98	0.39	7.208	4.703	49.60		-0.83	0.000
139.47	22.394	6.358	47.96	0.39	7.218	4.706	27.94		-0.83	0.000
139.74	22.427	7.079	47.92	0.39	7.210	4.707	-50.33		-0.83	0.000
140.01	22.464	7.776	47.89	0.39	7.220	4.708	-101.14		-0.83	0.000
140.29	22.493	8.474	47.86	0.39	7.221	4.709	-215.37		-0.83	0.000
140.56	22.536	9.147	47.81	0.39	7.224	4.711	-275.55		-0.83	0.000
140.84	22.582	9.808	47.77	0.39	7.236	4.716	-364.80		-0.83	0.000
141.11	22.634	10.445	47.72	0.39	7.243	4.719	-399.26		-0.83	0.000
141.39	22.671	11.058	47.68	0.39	7.269	4.724	-431.17		-0.83	0.000
141.66	22.727	11.611	47.62	0.39	7.281	4.733	-444.52		-0.83	0.000
141.94	22.788	12.163	47.56	0.39	7.301	4.745	-458.45		-0.83	0.000
142.21	22.849	12.668	47.50	0.39	7.323	4.757	-454.35		-0.83	0.000
142.48	22.891	13.149	47.46	0.39	7.330	4.771	-397.21		-0.83	0.000
142.76	22.958	13.582	47.39	0.39	7.358	4.786	-348.50		-0.83	0.000
143.03	23.027	13.978	47.32	0.39	7.380	4.800	-228.20		-0.83	0.000
143.30	23.075	14.351	47.28	0.39	7.414	4.817	-181.60		-0.83	0.000
143.57	23.148	14.675	47.20	0.39	7.439	4.834	-141.54		-0.83	0.000
143.84	23.222	14.964	47.13	0.39	7.475	4.843	-145.40		-0.83	0.000
144.12	23.298	15.204	47.05	0.38	7.509	4.862	-187.38		-0.83	0.000
144.39	23.348	15.421	47.00	0.38	7.548	4.883	-216.03		-0.83	0.000
144.67	23.426	15.589	46.92	0.38	7.588	4.907	-224.42		-0.83	0.000
144.94	23.503	15.709	46.85	0.38	7.625	4.934	-255.03		-0.83	0.000
145.21	23.555	15.793	46.79	0.38	7.700	4.968	-281.24		-0.83	0.000
145.48	23.635	15.841	46.72	0.38	7.780	5.014	-335.27		-0.83	0.000
145.76	23.714	15.841	46.64	0.38	7.874	5.070	-356.33		-0.83	0.000
146.03	23.794	15.793	46.56	0.38	7.962	5.129	-359.26		-0.83	0.000
146.30	23.848	15.721	46.50	0.38	8.076	5.203	-328.66		-0.83	0.000
146.58	23.925	15.589	46.43	0.38	8.182	5.243	-271.61		-0.83	0.000
146.85	24.002	15.421	46.35	0.38	8.306	5.325	-239.91		-0.83	0.000
147.12	24.053	15.216	46.30	0.38	8.442	5.417	-176.67		-0.83	0.000
147.39	24.129	14.976	46.22	0.38	8.502	5.519	-155.19		-0.83	0.000
147.67	24.203	14.687	46.15	0.38	8.666	5.635	-148.69		-0.83	0.000
147.94	24.275	14.363	46.08	0.38	8.819	5.763	-158.90		-0.83	0.000
148.21	24.323	13.990	46.03	0.38	8.980	5.902	-198.08		-0.83	0.000
148.49	24.390	13.594	45.96	0.38	9.153	6.049	-218.33		-0.83	0.000
148.76	24.458	13.161	45.89	0.38	9.334	6.201	-272.40		-0.83	0.000
149.03	24.502	12.692	45.85	0.37	9.489	6.361	-298.85		-0.83	0.000
149.30	24.563	12.188	45.79	0.37	9.656	6.440	-356.11		-0.83	0.000
149.57	24.623	11.647	45.73	0.37	9.821	6.595	-376.66		-0.83	0.000
149.85	24.680	11.082	45.67	0.37	9.893	6.751	-433.99		-0.83	0.000
150.12	24.716	10.493	45.63	0.37	10.051	6.900	-470.18		-0.83	0.000
150.40	24.767	9.868	45.58	0.37	10.197	7.048	-523.74		-0.83	0.000
150.68	24.814	9.219	45.54	0.37	10.331	7.188	-529.70		-0.83	0.000
150.95	24.844	8.510	45.51	0.37	10.468	7.321	-512.35		-0.83	0.000
151.22	24.885	7.813	45.47	0.37	10.577	7.447	-499.94		-0.83	0.000
151.50	24.922	7.091	45.43	0.37	10.686	7.563	-495.90		-0.83	0.000
151.78	24.954	6.346	45.40	0.37	10.783	7.667	-500.34		-0.83	0.000
152.05	24.975	5.589	45.38	0.37	10.865	7.764	-495.86		-0.83	0.000
152.32	24.999	4.808	45.35	0.37	10.930	7.850	-480.38		-0.83	0.000
152.60	25.021	4.014	45.33	0.37	10.985	7.887	-433.12		-0.83	0.000
152.87	25.039	3.221	45.31	0.37	11.014	7.949	-396.59		-0.83	0.000
153.15	25.048	2.416	45.30	0.37	11.050	8.001	-309.44		-0.83	0.000
153.41	25.057	1.611	45.29	0.37	11.087	8.044	-274.18		-0.83	0.000
153.69	25.059	0.793	45.29	0.37	11.101	8.080	-236.86		-0.83	0.000
153.95	25.062	0.000	45.29	0.37	11.110	8.100	-228.58		-0.83	0.000
154.23	25.062	-0.805	45.29	0.37	11.107	8.110	-208.72		-0.83	0.000
154.50	25.062	-1.611	45.29	0.37	11.099	8.113	-201.51		-0.83	0.000
154.77	25.053	-2.416	45.30	0.37	11.099	8.110	-176.82		-0.83	0.000
155.04	25.041	-3.221	45.31	0.37	11.097	8.108	-172.13		-0.83	0.000
155.32	25.022	-4.002	45.33	0.37	11.079	8.102	-169.51		-0.83	0.000
155.60	25.000	-4.796	45.35	0.37	11.065	8.096	-163.97		-0.83	0.000
155.88	24.971	-5.577	45.38	0.37	11.041	8.086	-145.16		-0.83	0.000
156.16	24.953	-6.334	45.40	0.37	10.999	8.069	-121.39		-0.83	0.000
156.44	24.920	-7.103	45.43	0.37	10.982	8.036	-113.17		-0.83	0.000
156.71	24.882	-7.837	45.47	0.37	10.972	7.994	-113.96		-0.83	0.000
156.99	24.839	-8.546	45.51	0.37	10.957	7.968	-115.95		-0.83	0.000
157.26	24.811	-9.219	45.54	0.37	10.932	7.947	-125.06		-0.83	0.000
157.54	24.762	-9.880	45.59	0.37	10.901	7.927	-119.38		-0.83	0.000
157.82	24.712	-10.517	45.64	0.37	10.817	7.898	-104.38		-0.83	0.000
158.10	24.657	-11.118	45.69	0.37	10.727	7.831	-97.63		-0.83	0.000
158.38	24.618	-11.707	45.73	0.37	10.684	7.745	-100.01		-0.83	0.000
158.66	24.559	-12.236	45.79	0.37	10.572	7.635	-109.36		-0.83	0.000
158.94	24.498	-12.752	45.85	0.37	10.460	7.518	-133.83		-0.83	0.000
159.21	24.431	-13.233	45.92	0.38	10.337	7.453	-137.80		-0.83	0.000
159.49	24.387	-13.678	45.96	0.38	10.218	7.326	-113.96		-0.83	0.000
159.77	24.318	-14.075	46.03	0.38	10.075	7.189	-46.01		-0.83	0.000
160.04	24.246	-14.435	46.10	0.38	9.941	7.049	-7.65		-0.83	0.000
160.31	24.175	-14.760	46.18	0.38	9.812	6.908	20.14		-0.83	0.000
160.58	24.125	-15.036	46.23	0.38	9.671	6.765	17.04		-0.83	0.000
160.85	24.048	-15.264	46.30	0.38	9.533	6.627	17.09		-0.83	0.000
161.12	23.971	-15.469	46.38	0.38	9.404	6.490	38.77		-0.83	0.000
161.39	23.920	-15.613	46.43	0.38	9.338	6.357	57.37		-0.83	0.000
161.67	23.841	-15.733	46.51	0.38	9.207	6.230	90.59		-0.83	0.000
161.94	23.762	-15.805	46.59	0.38	9.074	6.165	76.77		-0.83	0.000
162.21	23.682	-15.841	46.67	0.38	8.864	6.047	59.06		-0.83	0.000
162.48	23.631	-15.829	46.72	0.38	8.700	5.914	33.84		-0.83	0.000
162.75	23.550	-15.781	46.80	0.38	8.527	5.769	-37.31		-0.83	0.000
163.03	23.472	-15.697	46.88	0.38	8.370	5.634	-75.81		-0.83	0.000
163.30	23.421	-15.565	46.93	0.38	8.232	5.501	-122.89		-0.83	0.000
163.58	23.344	-15.385	47.01	0.38	8.098	5.385	-139.72		-0.83	0.000
163.85	23.267	-15.168	47.08	0.38	8.035	5.282	-174.74		-0.83	0.000
164.12	23.193	-14.904	47.16	0.39	7.927	5.184	-190.47		-0.83	0.000
164.40	23.143	-14.615	47.21	0.39	7.807	5.098	-227.72		-0.83	0.000
164.67	23.070	-14.279	47.28	0.39	7.710	5.061	-232.74		-0.83	0.000
164.95	23.000	-13.894	47.35	0.39	7.635	4.985	-194.30		-0.83	0.000
165.23	22.932	-13.498	47.42	0.39	7.547	4.917	-159.30		-0.83	0.000
165.50	22.888	-13.041	47.46	0.39	7.475	4.863	-65.17		-0.83	0.000
165.77	22.823	-12.548	47.53	0.39	7.432	4.814	-14.90		-0.83	0.000
166.04	22.762	-12.043	47.59	0.39	7.376	4.772	71.09		-0.83	0.000
166.31	22.723	-11.502	47.63	0.39	7.358	4.740	87.41		-0.83	0.000
166.59	22.666	-10.925	47.68	0.39	7.320	4.712	106.27		-0.83	0.000
166.86	22.614	-10.337	47.74	0.39	7.276	4.689	97.78		-0.83	0.000
167.13	22.564	-9.700	47.79	0.39	7.245	4.671	61.42		-0.83	0.000
167.40	22.532	-9.038	47.82	0.39	7.227	4.664	50.95		-0.83	0.000
167.67	22.489	-8.353	47.86	0.39	7.202	4.648	22.89		-0.83	0.000
167.94	22.450	-7.668	47.90	0.39	7.182	4.639	7.16		-0.83	0.000
168.21	22.425	-6.947	47.93	0.39	7.167	4.629	-32.74		-0.83	0.000
168.48	22.393	-6.226	47.96	0.39	7.157	4.622	-54.36		-0.83	0.000
168.76	22.364	-5.469	47.99	0.39	7.145	4.616	-80.55		-0.83	0.000
169.04	22.347	-4.688	48.00	0.39	7.131	4.611	-72.17		-0.83	0.000
169.30	22.326	-3.894	48.02	0.39	7.131	4.609	-64.54		-0.83	0.000
169.58	22.309	-3.089	48.04	0.39	7.115	4.607	-32.81		-0.83	0.000
169.85	22.300	-2.296	48.05	0.39	7.115	4.605	-3.74		-0.83	0.000
170.10	22.293	-1.478	48.06	0.39	7.120	4.604	20.33		-0.83	0.000
170.37	22.288	-0.697	48.06	0.39	7.124	4.606	59.04		-0.83	0.000
170.63	22.288	0.072	48.06	0.39	7.120	4.608	76.97		-0.83	0.000
170.90	22.288	0.865	48.06	0.39	7.131	4.611	97.48		-0.83	0.000
171.16	22.288	1.647	48.06	0.39	7.135	4.615	104.01		-0.83	0.000
171.43	22.288	2.440	48.06	0.39	7.134	4.619	76.30		-0.83	0.000
171.69	22.295	3.209	48.05	0.39	7.142	4.621	40.70		-0.83	0.000
171.96	22.318	3.978	48.03	0.39	7.143	4.625	-51.41		-0.83	0.000
172.23	22.334	4.724	48.02	0.39	7.136	4.627	-96.04		-0.83	0.000
172.51	22.358	5.505	47.99	0.39	7.148	4.628	-140.08		-0.83	0.000
172.77	22.389	6.250	47.96	0.39	7.146	4.629	-146.29		-0.83	0.000
173.04	22.411	6.995	47.94	0.39	7.144	4.630	-147.37		-0.83	0.000
173.31	22.449	7.692	47.90	0.39	7.151	4.632	-147.01		-0.83	0.000
173.58	22.489	8.401	47.86	0.39	7.153	4.633	-146.57		-0.83	0.000
173.86	22.518	9.075	47.83	0.39	7.161	4.633	-146.38		-0.83	0.000
174.13	22.563	9.724	47.79	0.39	7.159	4.636	-161.90		-0.83	0.000
174.41	22.614	10.361	47.74	0.39	7.174	4.641	-160.59		-0.83	0.000
174.68	22.668	10.962	47.68	0.39	7.183	4.646	-113.93		-0.83	0.000
174.95	22.706	11.538	47.64	0.39	7.199	4.655	-72.56		-0.83	0.000
175.23	22.763	12.091	47.59	0.39	7.217	4.666	10.90		-0.83	0.000
175.48	22.827	12.584	47.52	0.39	7.239	4.675	34.96		-0.83	0.000
175.76	22.868	13.077	47.48	0.39	7.258	4.691	38.94		-0.83	0.000
176.02	22.934	13.486	47.42	0.39	7.277	4.696	31.69		-0.83	0.000
176.29	23.004	13.894	47.35	0.39	7.303	4.708	-18.01		-0.83	0.000
176.57	23.052	14.267	47.30	0.39	7.317	4.723	-47.16		-0.83	0.000
176.83	23.123	14.591	47.23	0.39	7.337	4.741	-93.09		-0.83	0.000
177.11	23.197	14.892	47.15	0.39	7.372	4.759	-104.50		-0.83	0.000
177.38	23.272	15.144	47.08	0.38	7.411	4.775	-123.83		-0.83	0.000
177.65	23.323	15.373	47.03	0.38	7.444	4.794	-148.03		-0.83	0.000
177.93	23.400	15.541	46.95	0.38	7.468	4.813	-212.18		-0.83	0.000
178.20	23.477	15.685	46.87	0.38	7.535	4.838	-249.88		-0.83	0.000
178.47	23.531	15.781	46.82	0.38	7.610	4.872	-328.01		-0.83	0.000
178.74	23.611	15.829	46.74	0.38	7.685	4.892	-362.00		-0.83	0.000
179.02	23.690	15.841	46.66	0.38	7.729	4.938	-410.13		-0.83	0.000
179.29	23.767	15.817	46.58	0.38	7.813	4.990	-412.62		-0.83	0.000
179.56	23.820	15.745	46.53	0.38	7.893	5.050	-400.64		-0.83	0.000
179.84	23.898	15.625	46.45	0.38	7.999	5.116	-397.83		-0.83	0.000
180.11	23.977	15.481	46.37	0.38	8.103	5.193	-394.59		-0.83	0.000
180.38	24.029	15.276	46.32	0.38	8.226	5.274	-393.44		-0.83	0.000
180.66	24.103	15.036	46.25	0.38	8.355	5.368	-359.06		-0.83	0.000
180.93	24.177	14.760	46.17	0.38	8.502	5.470	-325.35		-0.83	0.000
181.21	24.250	14.447	46.10	0.38	8.649	5.587	-243.47		-0.83	0.000
181.47	24.300	14.099	46.05	0.38	8.735	5.653	-200.58		-0.83	0.000
181.75	24.367	13.690	45.98	0.38	8.893	5.786	-131.85		-0.83	0.000
182.02	24.435	13.281	45.92	0.38	9.051	5.929	-102.53		-0.83	0.000
182.29	24.480	12.812	45.87	0.38	9.217	6.077	-50.63		-0.83	0.000
182.56	24.541	12.332	45.81	0.37	9.378	6.229	-20.41		-0.83	0.000
182.82	24.602	11.803	45.75	0.37	9.540	6.381	37.31		-0.83	0.000
183.09	24.641	11.250	45.71	0.37	9.686	6.534	57.86		-0.83	0.000
183.37	24.696	10.673	45.65	0.37	9.835	6.684	80.42		-0.83	0.000
183.64	24.746	10.060	45.60	0.37	9.902	6.821	82.44		-0.83	0.000
183.91	24.778	9.423	45.57	0.37	10.048	6.891	65.24		-0.83	0.000
184.18	24.825	8.762	45.53	0.37	10.175	7.025	52.18		-0.83	0.000
184.45	24.867	8.077	45.48	0.37	10.296	7.154	18.09		-0.83	0.000
184.72	24.904	7.380	45.45	0.37	10.407	7.277	6.36		-0.83	0.000
184.98	24.930	6.647	45.42	0.37	10.512	7.387	-44.88		-0.83	0.000
185.27	24.959	5.913	45.39	0.37	10.590	7.488	-80.41		-0.83	0.000
185.54	24.987	5.156	45.36	0.37	10.676	7.581	-157.72		-0.83	0.000
185.81	25.002	4.363	45.35	0.37	10.703	7.660	-180.28		-0.83	0.000
186.09	25.023	3.570	45.33	0.37	10.763	7.725	-192.52		-0.83	0.000
186.36	25.034	2.764	45.32	0.37	10.807	7.753	-185.59		-0.83	0.000
186.63	25.046	1.959	45.30	0.37	10.844	7.803	-178.70		-0.83	0.000
186.89	25.049	1.154	45.30	0.37	10.856	7.839	-176.63		-0.83	0.000
187.17	25.057	0.349	45.29	0.37	10.887	7.871	-164.14		-0.83	0.000
187.44	25.057	-0.433	45.29	0.37	10.884	7.890	-149.61		-0.83	0.000
187.71	25.057	-1.250	45.29	0.37	10.877	7.900	-112.74		-0.83	0.000
187.98	25.057	-2.043	45.29	0.37	10.884	7.900	-97.52		-0.83	0.000
188.26	25.048	-2.873	45.30	0.37	10.878	7.897	-67.48		-0.83	0.000
188.53	25.031	-3.654	45.32	0.37	10.866	7.892	-62.55		-0.83	0.000
188.80	25.020	-4.447	45.33	0.37	10.871	7.888	-80.32		-0.83	0.000
189.08	24.994	-5.216	45.36	0.37	10.850	7.885	-101.63		-0.83	0.000
189.36	24.962	-5.986	45.39	0.37	10.822	7.879	-135.08		-0.83	0.000
189.64	24.944	-6.731	45.41	0.37	10.778	7.864	-145.46		-0.83	0.000
189.91	24.905	-7.488	45.44	0.37	10.768	7.827	-155.83		-0.83	0.000
190.19	24.867	-8.209	45.48	0.37	10.750	7.792	-158.44		-0.83	0.000
190.47	24.823	-8.906	45.53	0.37	10.738	7.766	-171.80		-0.83	0.000
190.75	24.777	-9.567	45.57	0.37	10.717	7.747	-201.27		-0.83	0.000
191.03	24.745	-10.228	45.60	0.37	10.642	7.722	-221.83		-0.83	0.000
191.31	24.691	-10.853	45.66	0.37	10.617	7.684	-256.90		-0.83	0.000
191.58	24.636	-11.442	45.71	0.37	10.525	7.611	-269.56		-0.83	0.000
191.86	24.577	-12.007	45.77	0.37	10.415	7.517	-251.16		-0.83	0.000
192.14	24.535	-12.524	45.82	0.37	10.306	7.402	-230.46		-0.83	0.000
192.41	24.472	-13.017	45.88	0.38	10.191	7.279	-186.89		-0.83	0.000
192.68	24.405	-13.462	45.94	0.38	10.061	7.216	-185.29		-0.83	0.000
192.97	24.336	-13.870	46.01	0.38	9.926	7.083	-239.11		-0.83	0.000
193.24	24.290	-14.255	46.06	0.38	9.803	6.944	-276.58		-0.83	0.000
193.51	24.218	-14.603	46.13	0.38	9.664	6.802	-329.53		-0.83	0.000
193.79	24.145	-14.904	46.20	0.38	9.535	6.660	-330.16		-0.83	0.000
194.06	24.070	-15.156	46.28	0.38	9.398	6.522	-283.01		-0.83	0.000
194.34	24.018	-15.385	46.33	0.38	9.261	6.387	-249.07		-0.83	0.000
194.61	23.941	-15.553	46.41	0.38	9.206	6.257	-186.80		-0.83	0.000
194.89	23.863	-15.685	46.49	0.38	9.069	6.130	-169.92		-0.83	0.000
195.17	23.785	-15.781	46.57	0.38	8.954	6.012	-160.81		-0.83	0.000
195.45	23.731	-15.829	46.62	0.38	8.772	5.899	-169.89		-0.83	0.000
195.72	23.653	-15.841	46.70	0.38	8.601	5.771	-160.68		-0.83	0.000
196.00	23.575	-15.805	46.78	0.38	8.433	5.634	-105.36		-0.83	0.000
196.27	23.494	-15.733	46.86	0.38	8.273	5.568	-63.63		-0.83	0.000
196.54	23.443	-15.613	46.91	0.38	8.146	5.439	1.58		-0.83	0.000
196.82	23.366	-15.445	46.98	0.38	8.010	5.316	22.65		-0.83	0.000
197.09	23.288	-15.240	47.06	0.38	7.889	5.216	55.79		-0.83	0.000
197.36	23.238	-15.000	47.11	0.39	7.828	5.123	66.31		-0.83	0.000
197.64	23.163	-14.724	47.19	0.39	7.734	5.036	71.15		-0.83	0.000
197.91	23.090	-14.411	47.26	0.39	7.637	4.961	55.60		-0.83	0.000
198.19	23.020	-14.038	47.33	0.39	7.547	4.891	6.88		-0.83	0.000
198.46	22.973	-13.642	47.38	0.39	7.473	4.833	-13.72		-0.83	0.000
198.73	22.905	-13.197	47.44	0.39	7.405	4.781	-28.26		-0.83	0.000
199.01	22.843	-12.740	47.51	0.39	7.360	4.757	-30.98		-0.83	0.000
199.27	22.800	-12.236	47.55	0.39	7.298	4.715	-34.96		-0.83	0.000
199.55	22.739	-11.695	47.61	0.39	7.267	4.682	-35.11		-0.83	0.000
199.82	22.682	-11.154	47.67	0.39	7.245	4.655	-35.03		-0.83	0.000
200.10	22.629	-10.541	47.72	0.39	7.205	4.630	-35.13		-0.83	0.000
200.37	22.594	-9.916	47.76	0.39	7.185	4.614	-36.12		-0.83	0.000
200.64	22.547	-9.267	47.80	0.39	7.158	4.596	-37.25		-0.83	0.000
200.92	22.502	-8.606	47.85	0.39	7.137	4.585	-37.34		-0.83	0.000
201.19	22.475	-7.897	47.88	0.39	7.115	4.576	-28.23		-0.83	0.000
201.46	22.439	-7.188	47.91	0.39	7.105	4.568	-18.14		-0.83	0.000
201.73	22.406	-6.454	47.94	0.39	7.090	4.565	-14.22		-0.83	0.000
202.00	22.375	-5.709	47.98	0.39	7.071	4.558	-28.41		-0.83	0.000
202.28	22.356	-4.940	47.99	0.39	7.064	4.554	-43.46		-0.83	0.000
202.55	22.334	-4.159	48.02	0.39	7.058	4.549	-105.00		-0.83	0.000
202.83	22.317	-3.365	48.03	0.39	7.046	4.546	-142.29		-0.83	0.000
203.11	22.306	-2.548	48.04	0.39	7.054	4.544	-218.28		-0.83	0.000
203.37	22.298	-1.731	48.05	0.39	7.054	4.545	-252.46		-0.83	0.000
203.65	22.293	-0.913	48.06	0.39	7.058	4.545	-306.81		-0.83	0.000
203.92	22.290	-0.108	48.06	0.39	7.047	4.548	-312.48		-0.83	0.000
204.19	22.290	0.697	48.06	0.39	7.069	4.553	-297.58		-0.83	0.000
204.46	22.290	1.502	48.06	0.39	7.066	4.554	-276.75		-0.83	0.000
204.72	22.290	2.308	48.06	0.39	7.068	4.560	-226.90		-0.83	0.000
205.00	22.297	3.101	48.05	0.39	7.081	4.563	-192.29		-0.83	0.000
205.27	22.316	3.870	48.03	0.39	7.074	4.567	-164.31		-0.83	0.000
205.54	22.336	4.651	48.01	0.39	7.080	4.569	-159.09		-0.83	0.000
205.82	22.362	5.433	47.99	0.39	7.071	4.570	-166.35		-0.83	0.000
206.09	22.384	6.190	47.97	0.39	7.075	4.572	-176.97		-0.83	0.000
206.36	22.417	6.935	47.93	0.39	7.081	4.574	-206.97		-0.83	0.000
206.63	22.452	7.656	47.90	0.39	7.084	4.575	-224.20		-0.83	0.000
206.91	22.480	8.365	47.87	0.39	7.082	4.576	-276.09		-0.83	0.000
207.18	22.523	9.038	47.83	0.39	7.091	4.577	-300.67		-0.83	0.000
207.45	22.570	9.700	47.78	0.39	7.099	4.580	-344.44		-0.83	0.000
207.73	22.621	10.325	47.73	0.39	7.098	4.584	-376.89		-0.83	0.000
208.00	22.657	10.937	47.69	0.39	7.121	4.591	-430.19		-0.83	0.000
208.27	22.711	11.514	47.64	0.39	7.131	4.596	-443.87		-0.83	0.000
208.55	22.771	12.067	47.58	0.39	7.145	4.605	-424.37		-0.83	0.000
208.82	22.812	12.572	47.54	0.39	7.166	4.618	-398.69		-0.83	0.000
209.09	22.876	13.053	47.47	0.39	7.185	4.627	-325.65		-0.83	0.000
209.37	22.944	13.498	47.41	0.39	7.212	4.638	-237.28		-0.83	0.000
209.64	23.011	13.906	47.34	0.39	7.217	4.652	-201.23		-0.83	0.000
209.92	23.059	14.279	47.29	0.39	7.249	4.658	-163.91		-0.83	0.000
210.18	23.130	14.615	47.22	0.39	7.265	4.674	-172.77		-0.83	0.000
210.46	23.204	14.916	47.15	0.39	7.293	4.688	-205.04		-0.83	0.000
210.73	23.254	15.156	47.10	0.39	7.332	4.703	-223.43		-0.83	0.000
211.00	23.330	15.373	47.02	0.38	7.362	4.722	-249.07		-0.83	0.000
211.28	23.408	15.553	46.94	0.38	7.394	4.743	-266.51		-0.83	0.000
211.55	23.488	15.685	46.86	0.38	7.462	4.765	-282.29		-0.83	0.000
211.82	23.539	15.781	46.81	0.38	7.521	4.795	-278.46		-0.83	0.000
212.10	23.618	15.829	46.73	0.38	7.557	4.832	-260.95		-0.83	0.000
212.37	23.698	15.841	46.65	0.38	7.639	4.877	-258.42		-0.83	0.000
212.65	23.750	15.805	46.60	0.38	7.716	4.898	-258.08		-0.83	0.000
212.92	23.829	15.733	46.52	0.38	7.797	4.955	-252.07		-0.83	0.000
213.19	23.908	15.613	46.44	0.38	7.892	5.016	-216.82		-0.83	0.000
213.46	23.985	15.457	46.37	0.38	7.987	5.082	-193.52		-0.83	0.000
213.73	24.036	15.264	46.31	0.38	8.105	5.156	-165.13		-0.83	0.000
214.01	24.112	15.024	46.24	0.38	8.231	5.244	-156.64		-0.83	0.000
214.28	24.185	14.748	46.17	0.38	8.367	5.340	-159.91		-0.83	0.000
214.55	24.234	14.423	46.12	0.38	8.434	5.449	-166.49		-0.83	0.000
214.82	24.305	14.075	46.04	0.38	8.585	5.568	-187.56		-0.83	0.000
215.10	24.373	13.678	45.98	0.38	8.737	5.700	-188.77		-0.83	0.000
215.37	24.441	13.257	45.91	0.38	8.898	5.766	-156.08		-0.83	0.000
215.64	24.486	12.776	45.86	0.37	9.056	5.906	-129.37		-0.83	0.000
215.91	24.548	12.284	45.80	0.37	9.219	6.055	-83.61		-0.83	0.000
216.19	24.608	11.755	45.74	0.37	9.375	6.201	-63.65		-0.83	0.000
216.46	24.646	11.202	45.70	0.37	9.516	6.349	-27.66		-0.83	0.000
216.73	24.700	10.601	45.65	0.37	9.658	6.492	-16.72		-0.83	0.000
217.00	24.753	9.988	45.60	0.37	9.732	6.633	10.61		-0.83	0.000
217.27	24.785	9.339	45.57	0.37	9.870	6.770	31.21		-0.83	0.000
217.54	24.831	8.678	45.52	0.37	9.997	6.903	56.92		-0.83	0.000
217.82	24.871	8.005	45.48	0.37	10.126	6.965	64.82		-0.83	0.000
218.09	24.908	7.296	45.44	0.37	10.227	7.085	66.82		-0.83	0.000
218.36	24.934	6.550	45.42	0.37	10.327	7.197	64.90		-0.83	0.000
218.63	24.964	5.805	45.39	0.37	10.406	7.296	47.48		-0.83	0.000
218.90	24.989	5.048	45.36	0.37	10.486	7.388	26.28		-0.83	0.000
219.18	25.005	4.267	45.34	0.37	10.519	7.466	-21.78		-0.83	0.000
219.45	25.021	3.474	45.33	0.37	10.569	7.534	-34.38		-0.83	0.000
219.72	25.036	2.680	45.31	0.37	10.622	7.588	-44.51		-0.83	0.000
219.99	25.045	1.875	45.30	0.37	10.654	7.632	-42.11		-0.83	0.000
220.25	25.053	1.070	45.30	0.37	10.672	7.653	-37.09		-0.83	0.000
220.52	25.054	0.264	45.30	0.37	10.680	7.682	-37.67		-0.83	0.000
220.79	25.054	-0.517	45.30	0.37	10.693	7.701	-75.44		-0.83	0.000
221.06	25.054	-1.322	45.30	0.37	10.680	7.706	-109.07		-0.83	0.000
221.33	25.054	-2.127	45.30	0.37	10.683	7.707	-187.25		-0.83	0.000
221.61	25.046	-2.909	45.30	0.37	10.681	7.703	-220.88		-0.83	0.000
221.88	25.037	-3.702	45.31	0.37	10.670	7.698	-271.00		-0.83	0.000
222.15	25.018	-4.495	45.33	0.37	10.664	7.693	-286.90		-0.83	0.000
222.43	24.990	-5.264	45.36	0.37	10.657	7.689	-326.73		-0.83	0.000
222.71	24.962	-6.034	45.39	0.37	10.624	7.680	-349.63		-0.83	0.000
222.99	24.940	-6.791	45.41	0.37	10.584	7.674	-403.64		-0.83	0.000
223.26	24.903	-7.524	45.45	0.37	10.567	7.640	-422.83		-0.83	0.000
223.54	24.863	-8.257	45.49	0.37	10.551	7.602	-432.69		-0.83	0.000
223.82	24.820	-8.942	45.53	0.37	10.537	7.575	-421.80		-0.83	0.000
224.10	24.789	-9.627	45.56	0.37	10.520	7.554	-371.54		-0.83	0.000
224.37	24.739	-10.264	45.61	0.37	10.496	7.533	-342.63		-0.83	0.000
224.65	24.686	-10.889	45.66	0.37	10.408	7.496	-274.72		-0.83	0.000
224.93	24.629	-11.466	45.72	0.37	10.318	7.423	-193.96		-0.83	0.000
225.21	24.590	-12.031	45.76	0.37	10.205	7.325	-156.38		-0.83	0.000
225.49	24.530	-12.560	45.82	0.37	10.100	7.215	-103.86		-0.83	0.000
225.76	24.464	-13.041	45.89	0.38	9.981	7.094	-80.96		-0.83	0.000
226.04	24.398	-13.498	45.95	0.38	9.853	6.965	-35.69		-0.83	0.000
226.31	24.353	-13.906	46.00	0.38	9.723	6.831	-13.86		-0.83	0.000
226.58	24.282	-14.291	46.07	0.38	9.594	6.692	26.01		-0.83	0.000
226.86	24.209	-14.615	46.14	0.38	9.459	6.626	35.68		-0.83	0.000
227.13	24.136	-14.916	46.21	0.38	9.324	6.485	35.40		-0.83	0.000
227.40	24.087	-15.168	46.26	0.38	9.265	6.346	30.55		-0.83	0.000
227.67	24.011	-15.385	46.34	0.38	9.131	6.213	10.31		-0.83	0.000
227.94	23.934	-15.553	46.42	0.38	9.011	6.084	4.50		-0.83	0.000
228.21	23.880	-15.685	46.47	0.38	8.888	5.967	30.86		-0.83	0.000
228.48	23.802	-15.781	46.55	0.38	8.770	5.850	62.12		-0.83	0.000
228.76	23.723	-15.829	46.63	0.38	8.599	5.745	125.68		-0.83	0.000
229.04	23.643	-15.841	46.71	0.38	8.422	5.622	139.61		-0.83	0.000
229.31	23.590	-15.805	46.76	0.38	8.278	5.555	128.29		-0.83	0.000
229.58	23.512	-15.733	46.84	0.38	8.114	5.429	117.23		-0.83	0.000
229.86	23.434	-15.625	46.92	0.38	8.052	5.308	105.72		-0.83	0.000
230.12	23.382	-15.469	46.97	0.38	7.940	5.196	108.90		-0.83	0.000
230.40	23.304	-15.264	47.05	0.38	7.811	5.100	105.78		-0.83	0.000
230.67	23.229	-15.024	47.12	0.39	7.708	5.014	109.36		-0.83	0.000
230.95	23.154	-14.748	47.20	0.39	7.608	4.930	117.88		-0.83	0.000
231.22	23.107	-14.423	47.24	0.39	7.518	4.859	119.54		-0.83	0.000
231.49	23.034	-14.075	47.32	0.39	7.444	4.796	98.47		-0.83	0.000
231.76	22.966	-13.678	47.38	0.39	7.366	4.736	58.84		-0.83	0.000
232.04	22.920	-13.245	47.43	0.39	7.310	4.714	-27.94		-0.83	0.000
232.31	22.857	-12.788	47.49	0.39	7.290	4.669	-72.41		-0.83	0.000
232.59	22.793	-12.284	47.56	0.39	7.237	4.629	-150.59		-0.83	0.000
232.86	22.732	-11.755	47.62	0.39	7.204	4.603	-164.03		-0.83	0.000
233.14	22.695	-11.190	47.65	0.39	7.163	4.577	-160.61		-0.83	0.000
233.41	22.641	-10.601	47.71	0.39	7.136	4.558	-153.49		-0.83	0.000
233.68	22.588	-9.964	47.76	0.39	7.109	4.539	-164.52		-0.83	0.000
233.95	22.543	-9.327	47.81	0.39	7.091	4.526	-180.52		-0.83	0.000
234.23	22.512	-8.654	47.84	0.39	7.065	4.517	-238.99		-0.83	0.000
234.50	22.470	-7.957	47.88	0.39	7.049	4.510	-255.52		-0.83	0.000
234.78	22.432	-7.236	47.92	0.39	7.042	4.504	-257.77		-0.83	0.000
235.06	22.409	-6.502	47.94	0.39	7.026	4.499	-235.00		-0.83	0.000
235.33	22.380	-5.721	47.97	0.39	7.019	4.493	-225.72		-0.83	0.000
235.61	22.354	-4.964	48.00	0.39	7.006	4.488	-261.65		-0.83	0.000
235.88	22.334	-4.171	48.02	0.39	7.002	4.485	-300.39		-0.83	0.000
236.15	22.322	-3.365	48.03	0.39	7.002	4.484	-380.44		-0.83	0.000
236.43	22.307	-2.572	48.04	0.39	6.992	4.483	-405.31		-0.83	0.000
236.70	22.297	-1.755	48.05	0.39	7.001	4.483	-421.48		-0.83	0.000
236.97	22.291	-0.938	48.06	0.39	6.997	4.484	-412.88		-0.83	0.000
237.24	22.289	-0.144	48.06	0.39	6.998	4.487	-394.18		-0.83	0.000
237.51	22.289	0.673	48.06	0.39	7.011	4.489	-376.99		-0.83	0.000
237.78	22.289	1.466	48.06	0.39	7.003	4.491	-327.68		-0.83	0.000
238.05	22.289	2.272	48.06	0.39	7.012	4.496	-289.39		-0.83	0.000
238.32	22.297	3.065	48.05	0.39	7.020	4.499	-183.89		-0.83	0.000
238.59	22.314	3.858	48.04	0.39	7.013	4.502	-122.71		-0.83	0.000
238.86	22.329	4.627	48.02	0.39	7.014	4.504	-28.35		-0.83	0.000
239.13	22.357	5.397	47.99	0.39	7.020	4.505	-1.78		-0.83	0.000
239.40	22.385	6.154	47.96	0.39	7.018	4.507	9.47		-0.83	0.000
239.67	22.407	6.887	47.94	0.39	7.025	4.507	4.41		-0.83	0.000
239.94	22.445	7.596	47.90	0.39	7.029	4.510	-0.10		-0.83	0.000
240.21	22.482	8.305	47.87	0.39	7.023	4.512	8.02		-0.83	0.000
240.48	22.512	8.978	47.84	0.39	7.033	4.514	35.53		-0.83	0.000
240.74	22.559	9.627	47.79	0.39	7.031	4.516	46.25		-0.83	0.000
241.01	22.609	10.240	47.74	0.39	7.046	4.520	44.73		-0.83	0.000
241.29	22.643	10.841	47.71	0.39	7.064	4.526	16.15		-0.83	0.000
241.55	22.697	11.406	47.65	0.39	7.063	4.534	-12.95		-0.83	0.000
241.83	22.757	11.959	47.59	0.39	7.084	4.541	-43.30		-0.83	0.000
242.10	22.817	12.464	47.53	0.39	7.101	4.550	-43.62		-0.83	0.000
242.37	22.859	12.969	47.49	0.39	7.122	4.554	-43.36		-0.83	0.000
242.63	22.926	13.413	47.42	0.39	7.138	4.567	-43.21		-0.83	0.000
242.91	22.994	13.822	47.36	0.39	7.157	4.580	-69.08		-0.83	0.000
243.17	23.040	14.195	47.31	0.39	7.181	4.594	-93.91		-0.83	0.000
243.45	23.113	14.543	47.24	0.39	7.209	4.607	-158.50		-0.83	0.000
243.73	23.186	14.832	47.16	0.39	7.219	4.621	-199.66		-0.83	0.000
244.00	23.235	15.108	47.12	0.39	7.248	4.635	-245.82		-0.83	0.000
244.27	23.312	15.337	47.04	0.38	7.281	4.651	-254.03		-0.83	0.000
244.55	23.390	15.517	46.96	0.38	7.306	4.671	-234.95		-0.83	0.000
244.82	23.467	15.661	46.88	0.38	7.356	4.680	-234.69		-0.83	0.000
245.09	23.521	15.769	46.83	0.38	7.418	4.700	-237.03		-0.83	0.000
245.37	23.598	15.829	46.75	0.38	7.476	4.732	-253.50		-0.83	0.000
245.64	23.677	15.841	46.67	0.38	7.558	4.768	-259.30		-0.83	0.000
245.91	23.757	15.817	46.59	0.38	7.628	4.810	-284.93		-0.83	0.000
246.19	23.809	15.757	46.54	0.38	7.705	4.860	-304.81		-0.83	0.000
246.46	23.888	15.649	46.46	0.38	7.756	4.914	-341.11		-0.83	0.000
246.74	23.967	15.505	46.38	0.38	7.839	4.977	-368.72		-0.83	0.000
247.01	24.018	15.312	46.33	0.38	7.945	5.045	-436.71		-0.83	0.000
247.28	24.093	15.072	46.26	0.38	8.053	5.124	-468.39		-0.83	0.000
247.56	24.167	14.808	46.18	0.38	8.178	5.167	-499.15		-0.83	0.000
247.83	24.240	14.507	46.11	0.38	8.317	5.259	-494.51		-0.83	0.000
248.10	24.290	14.147	46.06	0.38	8.456	5.367	-460.36		-0.83	0.000
248.38	24.357	13.762	45.99	0.38	8.604	5.485	-432.37		-0.83	0.000
248.64	24.426	13.341	45.92	0.38	8.765	5.615	-373.91		-0.83	0.000
248.92	24.470	12.885	45.88	0.38	8.842	5.753	-336.93		-0.83	0.000
249.19	24.534	12.404	45.82	0.37	8.990	5.896	-241.61		-0.83	0.000
249.46	24.594	11.863	45.76	0.37	9.153	6.041	-181.92		-0.83	0.000
249.74	24.652	11.322	45.70	0.37	9.295	6.185	-47.36		-0.83	0.000
250.01	24.689	10.733	45.66	0.37	9.438	6.323	15.86		-0.83	0.000
250.28	24.741	10.108	45.61	0.37	9.579	6.394	107.30		-0.83	0.000
250.55	24.789	9.483	45.56	0.37	9.710	6.530	119.02		-0.83	0.000
250.82	24.821	8.822	45.53	0.37	9.846	6.665	99.58		-0.83	0.000
251.11	24.861	8.137	45.49	0.37	9.954	6.793	81.69		-0.83	0.000
251.38	24.900	7.428	45.45	0.37	10.016	6.914	54.72		-0.83	0.000
251.64	24.936	6.659	45.41	0.37	10.116	7.020	55.12		-0.83	0.000
251.92	24.957	5.925	45.39	0.37	10.205	7.121	78.84		-0.83	0.000
252.19	24.984	5.180	45.37	0.37	10.280	7.213	90.92		-0.83	0.000
252.46	25.008	4.399	45.34	0.37	10.348	7.296	88.18		-0.83	0.000
252.73	25.020	3.630	45.33	0.37	10.402	7.363	67.99		-0.83	0.000
253.00	25.035	2.825	45.32	0.37	10.448	7.393	15.62		-0.83	0.000
253.27	25.044	2.019	45.31	0.37	10.474	7.447	2.41		-0.83	0.000
253.54	25.052	1.214	45.30	0.37	10.496	7.483	-2.09		-0.83	0.000
253.81	25.054	0.421	45.30	0.37	10.502	7.515	-4.13		-0.83	0.000
254.08	25.054	-0.373	45.30	0.37	10.513	7.536	-36.07		-0.83	0.000
254.34	25.054	-1.166	45.30	0.37	10.514	7.541	-58.97		-0.83	0.000
254.61	25.054	-1.971	45.30	0.37	10.502	7.543	-102.75		-0.83	0.000
254.88	25.052	-2.752	45.30	0.37	10.498	7.538	-119.85		-0.83	0.000
255.16	25.035	-3.546	45.32	0.37	10.502	7.535	-136.30		-0.83	0.000
255.44	25.018	-4.339	45.33	0.37	10.486	7.531	-123.97		-0.83	0.000
255.72	24.995	-5.120	45.35	0.37	10.476	7.526	-77.67		-0.83	0.000
255.99	24.967	-5.901	45.38	0.37	10.465	7.519	-70.70		-0.83	0.000
256.27	24.934	-6.671	45.42	0.37	10.423	7.508	-77.41		-0.83	0.000
256.55	24.912	-7.404	45.44	0.37	10.397	7.476	-75.84		-0.83	0.000
256.82	24.871	-8.125	45.48	0.37	10.382	7.437	-25.26		-0.83	0.000
257.10	24.827	-8.834	45.52	0.37	10.376	7.412	15.55		-0.83	0.000
257.37	24.782	-9.495	45.57	0.37	10.354	7.393	102.56		-0.83	0.000
257.65	24.749	-10.132	45.60	0.37	10.311	7.371	137.54		-0.83	0.000
257.92	24.698	-10.757	45.65	0.37	10.225	7.333	179.25		-0.83	0.000
258.20	24.643	-11.346	45.71	0.37	10.132	7.262	184.02		-0.83	0.000
258.48	24.584	-11.911	45.77	0.37	10.025	7.168	176.35		-0.83	0.000
258.74	24.544	-12.440	45.81	0.37	9.914	7.114	169.04		-0.83	0.000
259.02	24.481	-12.933	45.87	0.38	9.851	6.996	197.07		-0.83	0.000
259.29	24.413	-13.377	45.94	0.38	9.729	6.868	204.14		-0.83	0.000
259.57	24.370	-13.798	45.98	0.38	9.604	6.738	182.93		-0.83	0.000
259.84	24.299	-14.183	46.05	0.38	9.474	6.603	154.05		-0.83	0.000
260.11	24.226	-14.519	46.12	0.38	9.341	6.466	99.27		-0.83	0.000
260.38	24.153	-14.832	46.20	0.38	9.212	6.330	77.96		-0.83	0.000
260.65	24.103	-15.096	46.25	0.38	9.080	6.193	26.28		-0.83	0.000
260.92	24.027	-15.325	46.32	0.38	8.957	6.063	-10.76		-0.83	0.000
261.19	23.950	-15.505	46.40	0.38	8.898	6.001	-95.97		-0.83	0.000
261.46	23.899	-15.649	46.45	0.38	8.778	5.880	-139.28		-0.83	0.000
261.74	23.821	-15.757	46.53	0.38	8.667	5.768	-225.45		-0.83	0.000
262.02	23.741	-15.817	46.61	0.38	8.515	5.661	-262.83		-0.83	0.000
262.28	23.663	-15.841	46.69	0.38	8.344	5.556	-291.44		-0.83	0.000
262.56	23.609	-15.829	46.74	0.38	8.199	5.430	-285.89		-0.83	0.000
262.84	23.531	-15.769	46.82	0.38	8.052	5.310	-262.59		-0.83	0.000
263.12	23.453	-15.661	46.90	0.38	7.918	5.195	-264.09		-0.83	0.000
263.39	23.399	-15.505	46.95	0.38	7.810	5.086	-268.34		-0.83	0.000
263.67	23.322	-15.325	47.03	0.38	7.698	4.995	-231.79		-0.83	0.000
263.95	23.248	-15.084	47.10	0.39	7.638	4.912	-193.03		-0.83	0.000
264.22	23.171	-14.820	47.18	0.39	7.550	4.836	-96.61		-0.83	0.000
264.50	23.123	-14.495	47.23	0.39	7.454	4.802	-45.76		-0.83	0.000
264.77	23.052	-14.147	47.30	0.39	7.375	4.736	45.94		-0.83	0.000
265.04	22.982	-13.762	47.37	0.39	7.308	4.680	89.82		-0.83	0.000
265.32	22.916	-13.341	47.43	0.39	7.257	4.632	152.86		-0.83	0.000
265.59	22.870	-12.885	47.48	0.39	7.205	4.589	171.21		-0.83	0.000
265.86	22.807	-12.392	47.54	0.39	7.153	4.554	163.54		-0.83	0.000
266.14	22.748	-11.875	47.60	0.39	7.127	4.531	140.14		-0.83	0.000
266.41	22.708	-11.322	47.64	0.39	7.088	4.508	59.89		-0.83	0.000
266.67	22.653	-10.721	47.70	0.39	7.072	4.492	3.45		-0.83	0.000
266.95	22.600	-10.108	47.75	0.39	7.047	4.477	-128.83		-0.83	0.000
267.22	22.553	-9.483	47.80	0.39	7.023	4.469	-199.78		-0.83	0.000
267.50	22.521	-8.822	47.83	0.39	7.007	4.461	-331.97		-0.83	0.000
267.77	22.480	-8.125	47.87	0.39	6.991	4.453	-377.24		-0.83	0.000
268.05	22.441	-7.416	47.91	0.39	6.978	4.446	-452.06		-0.83	0.000
268.32	22.407	-6.683	47.94	0.39	6.956	4.440	-489.02		-0.83	0.000
268.59	22.386	-5.913	47.96	0.39	6.955	4.434	-538.38		-0.83	0.000
268.86	22.358	-5.156	47.99	0.39	6.943	4.430	-540.65		-0.83	0.000
269.14	22.335	-4.375	48.01	0.39	6.939	4.427	-484.36		-0.83	0.000
269.41	22.325	-3.594	48.03	0.39	6.936	4.426	-439.99		-0.83	0.000
269.69	22.311	-2.788	48.04	0.39	6.933	4.425	-352.43		-0.83	0.000
269.96	22.299	-1.983	48.05	0.39	6.933	4.425	-316.58		-0.83	0.000
270.24	22.291	-1.166	48.06	0.39	6.932	4.425	-259.09		-0.83	0.000
270.50	22.289	-0.349	48.06	0.39	6.940	4.425	-232.95		-0.83	0.000
270.77	22.288	0.469	48.06	0.39	6.943	4.430	-191.86		-0.83	0.000
271.04	22.288	1.262	48.06	0.39	6.945	4.433	-164.63		-0.83	0.000
271.31	22.288	2.055	48.06	0.39	6.948	4.437	-101.74		-0.83	0.000
271.58	22.289	2.849	48.06	0.39	6.946	4.439	-72.53		-0.83	0.000
271.85	22.308	3.630	48.04	0.39	6.952	4.445	-42.86		-0.83	0.000
272.12	22.323	4.399	48.03	0.39	6.954	4.447	-51.99		-0.83	0.000
272.39	22.349	5.192	48.00	0.39	6.955	4.448	-103.68		-0.83	0.000
272.66	22.377	5.938	47.97	0.39	6.959	4.449	-132.44		-0.83	0.000
272.94	22.408	6.683	47.94	0.39	6.957	4.450	-187.20		-0.83	0.000
273.21	22.432	7.404	47.92	0.39	6.965	4.453	-211.00		-0.83	0.000
273.49	22.472	8.125	47.88	0.39	6.966	4.454	-239.85		-0.83	0.000
273.76	22.514	8.810	47.84	0.39	6.963	4.456	-258.88		-0.83	0.000
274.03	22.544	9.495	47.81	0.39	6.979	4.459	-294.77		-0.83	0.000
274.30	22.595	10.132	47.75	0.39	6.980	4.462	-320.66		-0.83	0.000
274.57	22.647	10.733	47.70	0.39	6.994	4.469	-352.02		-0.83	0.000
274.84	22.702	11.322	47.65	0.39	7.002	4.475	-360.37		-0.83	0.000
275.13	22.739	11.875	47.61	0.39	7.019	4.478	-339.43		-0.83	0.000
275.40	22.800	12.392	47.55	0.39	7.033	4.487	-313.25		-0.83	0.000
275.67	22.864	12.897	47.49	0.39	7.057	4.495	-241.50		-0.83	0.000
275.94	22.908	13.353	47.44	0.39	7.073	4.507	-202.56		-0.83	0.000
276.21	22.976	13.774	47.37	0.39	7.082	4.520	-155.28		-0.83	0.000
276.48	23.045	14.159	47.30	0.39	7.104	4.532	-152.13		-0.83	0.000
276.76	23.117	14.495	47.23	0.39	7.123	4.543	-180.88		-0.83	0.000
277.04	23.166	14.808	47.18	0.39	7.147	4.555	-219.64		-0.83	0.000
277.31	23.241	15.084	47.11	0.39	7.173	4.569	-230.10		-0.83	0.000
277.58	23.317	15.312	47.03	0.38	7.205	4.586	-243.01		-0.83	0.000
277.85	23.368	15.505	46.98	0.38	7.231	4.594	-245.37		-0.83	0.000
278.13	23.445	15.649	46.90	0.38	7.278	4.608	-241.32		-0.83	0.000
278.40	23.525	15.757	46.83	0.38	7.343	4.628	-228.53		-0.83	0.000
278.68	23.604	15.817	46.75	0.38	7.367	4.655	-187.81		-0.83	0.000
278.95	23.655	15.841	46.69	0.38	7.439	4.693	-160.43		-0.83	0.000
279.22	23.736	15.829	46.61	0.38	7.503	4.734	-93.84		-0.83	0.000
279.49	23.813	15.769	46.54	0.38	7.579	4.781	-51.00		-0.83	0.000
279.76	23.867	15.661	46.48	0.38	7.668	4.829	39.33		-0.83	0.000
280.03	23.944	15.517	46.41	0.38	7.741	4.883	72.51		-0.83	0.000
280.30	24.021	15.337	46.33	0.38	7.843	4.915	115.36		-0.83	0.000
280.57	24.072	15.120	46.28	0.38	7.950	4.981	125.98		-0.83	0.000
280.84	24.148	14.844	46.20	0.38	8.002	5.060	139.05		-0.83	0.000
281.12	24.220	14.543	46.13	0.38	8.137	5.146	126.90		-0.83	0.000
281.39	24.293	14.219	46.06	0.38	8.266	5.245	77.11		-0.83	0.000
281.66	24.340	13.834	46.01	0.38	8.415	5.357	50.99		-0.83	0.000
281.92	24.408	13.413	45.94	0.38	8.551	5.479	8.09		-0.83	0.000
282.20	24.473	12.969	45.88	0.38	8.710	5.611	-4.45		-0.83	0.000
282.47	24.517	12.500	45.83	0.37	8.857	5.746	-20.80		-0.83	0.000
282.74	24.576	11.983	45.77	0.37	9.005	5.815	-26.23		-0.83	0.000
283.01	24.636	11.430	45.71	0.37	9.077	5.958	-42.91		-0.83	0.000
283.28	24.673	10.865	45.68	0.37	9.216	6.096	-65.09		-0.83	0.000
283.55	24.726	10.252	45.62	0.37	9.358	6.237	-118.76		-0.83	0.000
283.83	24.776	9.627	45.57	0.37	9.489	6.369	-148.87		-0.83	0.000
284.10	24.822	8.978	45.53	0.37	9.617	6.499	-157.94		-0.83	0.000
284.38	24.850	8.281	45.50	0.37	9.741	6.628	-148.16		-0.83	0.000
284.65	24.890	7.584	45.46	0.37	9.846	6.748	-117.79		-0.83	0.000
284.92	24.925	6.839	45.43	0.37	9.951	6.859	-113.84		-0.83	0.000
285.19	24.948	6.106	45.40	0.37	10.037	6.959	-131.20		-0.83	0.000
285.47	24.975	5.349	45.38	0.37	10.081	7.007	-141.50		-0.83	0.000
285.74	24.999	4.567	45.35	0.37	10.151	7.094	-141.40		-0.83	0.000
286.02	25.018	3.774	45.33	0.37	10.199	7.167	-128.60		-0.83	0.000
286.29	25.027	2.981	45.32	0.37	10.254	7.230	-80.03		-0.83	0.000
286.56	25.041	2.163	45.31	0.37	10.284	7.278	-45.58		-0.83	0.000
286.83	25.046	1.358	45.30	0.37	10.312	7.318	23.47		-0.83	0.000
287.10	25.053	0.553	45.30	0.37	10.336	7.349	47.65		-0.83	0.000
287.37	25.053	-0.240	45.30	0.37	10.329	7.370	47.47		-0.83	0.000
287.63	25.053	-1.034	45.30	0.37	10.331	7.380	29.45		-0.83	0.000
287.90	25.053	-1.839	45.30	0.37	10.331	7.382	-9.90		-0.83	0.000
288.17	25.053	-2.632	45.30	0.37	10.330	7.383	-32.35		-0.83	0.000
288.44	25.035	-3.413	45.32	0.37	10.328	7.380	-64.69		-0.83	0.000
288.72	25.016	-4.207	45.33	0.37	10.327	7.375	-90.33		-0.83	0.000
289.00	25.000	-4.976	45.35	0.37	10.302	7.372	-130.91		-0.83	0.000
289.27	24.972	-5.757	45.38	0.37	10.280	7.367	-154.44		-0.83	0.000
289.55	24.940	-6.514	45.41	0.37	10.238	7.356	-196.43		-0.83	0.000
289.83	24.907	-7.260	45.44	0.37	10.226	7.319	-214.80		-0.83	0.000
290.11	24.881	-7.993	45.47	0.37	10.213	7.284	-252.39		-0.83	0.000
290.39	24.837	-8.690	45.51	0.37	10.203	7.257	-262.97		-0.83	0.000
290.67	24.793	-9.375	45.56	0.37	10.194	7.240	-265.28		-0.83	0.000
290.95	24.744	-10.036	45.61	0.37	10.164	7.218	-245.26		-0.84	0.000
291.23	24.709	-10.673	45.64	0.37	10.091	7.183	-194.68		-0.84	0.000
291.50	24.654	-11.274	45.70	0.37	9.999	7.148	-180.88		-0.84	0.000
291.78	24.598	-11.851	45.75	0.37	9.887	7.065	-195.79		-0.84	0.000
292.05	24.536	-12.368	45.81	0.37	9.785	6.961	-237.54		-0.84	0.000
292.33	24.494	-12.873	45.86	0.37	9.672	6.843	-268.64		-0.84	0.000
292.60	24.429	-13.329	45.92	0.38	9.548	6.716	-335.47		-0.84	0.000
292.87	24.362	-13.762	45.99	0.38	9.411	6.587	-355.92		-0.84	0.000
293.15	24.291	-14.147	46.06	0.38	9.292	6.453	-360.50		-0.84	0.000
293.42	24.243	-14.495	46.11	0.38	9.153	6.319	-350.40		-0.84	0.000
293.69	24.171	-14.808	46.18	0.38	9.097	6.185	-339.25		-0.84	0.000
293.96	24.095	-15.072	46.25	0.38	8.969	6.054	-340.70		-0.84	0.000
294.24	24.044	-15.312	46.31	0.38	8.834	5.925	-345.22		-0.84	0.000
294.52	23.967	-15.493	46.38	0.38	8.722	5.865	-341.36		-0.84	0.000
294.79	23.889	-15.649	46.46	0.38	8.609	5.747	-331.06		-0.84	0.000
295.07	23.811	-15.757	46.54	0.38	8.503	5.639	-322.85		-0.84	0.000
295.34	23.759	-15.817	46.59	0.38	8.353	5.540	-265.20		-0.84	0.000
295.61	23.679	-15.841	46.67	0.38	8.197	5.441	-227.30		-0.84	0.000
295.89	23.600	-15.829	46.75	0.38	8.059	5.322	-153.38		-0.84	0.000
296.16	23.521	-15.769	46.83	0.38	7.899	5.208	-121.38		-0.84	0.000
296.44	23.468	-15.661	46.88	0.38	7.843	5.098	-63.93		-0.84	0.000
296.71	23.390	-15.517	46.96	0.38	7.728	4.993	-36.20		-0.84	0.000
296.98	23.313	-15.325	47.04	0.38	7.617	4.906	13.47		-0.84	0.000
297.25	23.263	-15.108	47.09	0.38	7.517	4.830	47.76		-0.84	0.000
297.53	23.189	-14.832	47.16	0.39	7.434	4.791	129.86		-0.84	0.000
297.80	23.114	-14.531	47.24	0.39	7.345	4.723	173.31		-0.84	0.000
298.07	23.044	-14.195	47.31	0.39	7.273	4.663	245.86		-0.84	0.000
298.34	22.995	-13.810	47.35	0.39	7.207	4.608	249.63		-0.84	0.000
298.62	22.929	-13.389	47.42	0.39	7.155	4.567	214.26		-0.84	0.000
298.89	22.862	-12.945	47.49	0.39	7.130	4.528	188.09		-0.84	0.000
299.16	22.821	-12.452	47.53	0.39	7.091	4.496	132.52		-0.84	0.000
299.43	22.759	-11.935	47.59	0.39	7.049	4.473	110.66		-0.84	0.000
299.70	22.703	-11.370	47.65	0.39	7.025	4.456	64.63		-0.84	0.000
299.97	22.645	-10.805	47.70	0.39	6.990	4.448	41.19		-0.84	0.000
300.25	22.611	-10.192	47.74	0.39	6.971	4.434	7.60		-0.84	0.000
300.52	22.561	-9.567	47.79	0.39	6.944	4.422	-6.11		-0.84	0.000
300.80	22.516	-8.906	47.83	0.39	6.930	4.411	-4.73		-0.84	0.000
301.07	22.488	-8.209	47.86	0.39	6.919	4.405	2.61		-0.84	0.000
301.34	22.449	-7.488	47.90	0.39	6.904	4.399	47.96		-0.84	0.000
301.61	22.413	-6.779	47.94	0.39	6.894	4.393	61.69		-0.84	0.000
301.88	22.381	-6.046	47.97	0.39	6.881	4.389	74.69		-0.84	0.000
302.16	22.363	-5.276	47.99	0.39	6.867	4.386	73.19		-0.84	0.000
302.43	22.340	-4.507	48.01	0.39	6.871	4.383	71.33		-0.84	0.000
302.69	22.323	-3.714	48.03	0.39	6.859	4.383	78.22		-0.84	0.000
302.97	22.311	-2.921	48.04	0.39	6.865	4.382	95.23		-0.84	0.000
303.23	22.300	-2.139	48.05	0.39	6.861	4.383	108.23		-0.84	0.000
303.50	22.291	-1.322	48.06	0.39	6.860	4.384	131.28		-0.84	0.000
303.77	22.289	-0.541	48.06	0.39	6.869	4.386	135.66		-0.84	0.000
304.04	22.288	0.264	48.06	0.39	6.869	4.389	142.42		-0.84	0.000
304.30	22.288	1.070	48.06	0.39	6.875	4.395	147.61		-0.84	0.000
304.57	22.288	1.851	48.06	0.39	6.876	4.396	165.83		-0.84	0.000
304.83	22.288	2.632	48.06	0.39	6.881	4.400	161.97		-0.84	0.000
305.11	22.306	3.425	48.04	0.39	6.884	4.406	145.26		-0.84	0.000
305.37	22.316	4.171	48.03	0.39	6.884	4.409	138.98		-0.84	0.000
305.64	22.341	4.964	48.01	0.39	6.884	4.409	139.25		-0.84	0.000
305.92	22.368	5.709	47.98	0.39	6.883	4.410	141.07		-0.84	0.000
306.19	22.389	6.466	47.96	0.39	6.894	4.411	130.23		-0.84	0.000
306.46	22.422	7.200	47.93	0.39	6.891	4.413	108.67		-0.84	0.000
306.73	22.461	7.909	47.89	0.39	6.894	4.415	59.54		-0.84	0.000
306.99	22.490	8.594	47.86	0.39	6.893	4.417	36.28		-0.84	0.000
307.26	22.534	9.267	47.82	0.39	6.904	4.419	10.46		-0.84	0.000
307.54	22.582	9.904	47.77	0.39	6.899	4.423	23.41		-0.84	0.000
307.81	22.634	10.517	47.72	0.39	6.906	4.427	63.46		-0.84	0.000
308.08	22.668	11.118	47.68	0.39	6.923	4.431	73.98		-0.84	0.000
308.35	22.726	11.683	47.62	0.39	6.938	4.436	54.08		-0.84	0.000
308.62	22.786	12.212	47.56	0.39	6.947	4.445	37.08		-0.84	0.000
308.89	22.827	12.704	47.52	0.39	6.962	4.456	5.40		-0.84	0.000
309.16	22.891	13.173	47.46	0.39	6.987	4.460	1.39		-0.84	0.000
309.43	22.959	13.594	47.39	0.39	6.994	4.471	29.28		-0.84	0.000
309.69	23.004	14.002	47.35	0.39	7.010	4.482	40.72		-0.84	0.000
309.97	23.076	14.351	47.27	0.39	7.037	4.496	49.41		-0.84	0.000
310.23	23.148	14.675	47.20	0.39	7.053	4.507	30.13		-0.84	0.000
310.50	23.198	14.964	47.15	0.39	7.080	4.522	-22.46		-0.84	0.000
310.77	23.272	15.204	47.08	0.38	7.106	4.532	-49.25		-0.84	0.000
311.05	23.350	15.409	47.00	0.38	7.132	4.548	-93.47		-0.84	0.000
311.31	23.400	15.577	46.95	0.38	7.149	4.558	-115.32		-0.84	0.000
311.59	23.480	15.709	46.87	0.38	7.196	4.569	-186.70		-0.84	0.000
311.86	23.558	15.793	46.79	0.38	7.257	4.589	-229.66		-0.84	0.000
312.13	23.638	15.841	46.71	0.38	7.306	4.622	-329.61		-0.84	0.000
312.40	23.690	15.841	46.66	0.38	7.381	4.655	-381.38		-0.84	0.000
312.68	23.770	15.805	46.58	0.38	7.447	4.696	-462.04		-0.84	0.000
312.95	23.849	15.721	46.50	0.38	7.520	4.738	-489.15		-0.84	0.000
313.22	23.900	15.601	46.45	0.38	7.597	4.786	-497.78		-0.84	0.000
313.49	23.977	15.445	46.37	0.38	7.684	4.841	-490.33		-0.84	0.000
313.77	24.054	15.240	46.30	0.38	7.733	4.872	-461.13		-0.84	0.000
314.04	24.105	15.000	46.24	0.38	7.838	4.938	-451.08		-0.84	0.000
314.31	24.180	14.700	46.17	0.38	7.953	5.014	-411.43		-0.84	0.000
314.59	24.253	14.387	46.10	0.38	8.085	5.100	-383.67		-0.84	0.000
314.86	24.323	14.026	46.03	0.38	8.215	5.199	-321.14		-0.84	0.000
315.13	24.370	13.618	45.98	0.38	8.361	5.313	-299.91		-0.84	0.000
315.40	24.437	13.197	45.91	0.38	8.499	5.429	-275.51		-0.84	0.000
315.68	24.502	12.728	45.85	0.37	8.644	5.562	-264.06		-0.84	0.000
315.95	24.543	12.224	45.81	0.37	8.791	5.695	-250.21		-0.84	0.000
316.23	24.604	11.695	45.75	0.37	8.859	5.832	-242.93		-0.84	0.000
316.51	24.659	11.130	45.69	0.37	9.004	5.968	-244.36		-0.84	0.000
316.78	24.716	10.517	45.63	0.37	9.134	6.034	-249.28		-0.84	0.000
317.05	24.749	9.880	45.60	0.37	9.273	6.166	-256.03		-0.84	0.000
317.32	24.795	9.231	45.55	0.37	9.390	6.301	-257.36		-0.84	0.000
317.59	24.840	8.558	45.51	0.37	9.527	6.428	-253.31		-0.84	0.000
317.86	24.881	7.873	45.47	0.37	9.630	6.549	-237.53		-0.84	0.000
318.13	24.907	7.163	45.44	0.37	9.731	6.663	-164.83		-0.84	0.000
318.41	24.939	6.418	45.41	0.37	9.833	6.771	-120.37		-0.84	0.000
318.68	24.970	5.685	45.38	0.37	9.865	6.866	-52.91		-0.84	0.000
318.95	24.986	4.904	45.36	0.37	9.947	6.955	-30.61		-0.84	0.000
319.22	25.008	4.135	45.34	0.37	10.006	6.993	-10.19		-0.84	0.000
319.49	25.026	3.341	45.32	0.37	10.062	7.061	0.72		-0.84	0.000
319.75	25.034	2.560	45.32	0.37	10.101	7.119	27.16		-0.84	0.000
320.02	25.044	1.755	45.31	0.37	10.117	7.165	34.14		-0.84	0.000
320.30	25.052	0.962	45.30	0.37	10.157	7.202	44.78		-0.84	0.000
320.56	25.052	0.168	45.30	0.37	10.151	7.226	35.45		-0.84	0.000
320.82	25.052	-0.637	45.30	0.37	10.149	7.243	1.05		-0.84	0.000
321.09	25.052	-1.442	45.30	0.37	10.152	7.247	-19.41		-0.84	0.000
321.36	25.052	-2.212	45.30	0.37	10.156	7.248	-85.89		-0.84	0.000
321.64	25.045	-3.005	45.30	0.37	10.156	7.247	-124.57		-0.84	0.000
321.92	25.026	-3.798	45.32	0.37	10.142	7.241	-177.44		-0.84	0.000
322.19	25.004	-4.591	45.35	0.37	10.133	7.237	-194.54		-0.84	0.000
322.47	24.989	-5.373	45.36	0.37	10.107	7.235	-196.80		-0.84	0.000
322.74	24.959	-6.142	45.39	0.37	10.074	7.228	-187.50		-0.84	0.000
323.02	24.926	-6.899	45.42	0.37	10.056	7.208	-172.51		-0.84	0.000
323.30	24.889	-7.620	45.46	0.37	10.040	7.169	-168.36		-0.84	0.000
323.58	24.863	-8.353	45.49	0.37	10.037	7.140	-143.83		-0.84	0.000
323.85	24.818	-9.038	45.53	0.37	10.023	7.116	-126.30		-0.84	0.000
324.13	24.771	-9.712	45.58	0.37	9.995	7.098	-98.98		-0.84	0.000
324.40	24.721	-10.337	45.63	0.37	9.934	7.075	-77.01		-0.84	0.000
324.68	24.686	-10.962	45.66	0.37	9.859	7.049	-28.88		-0.84	0.000
324.95	24.629	-11.526	45.72	0.37	9.763	6.981	-12.38		-0.84	0.000
325.22	24.570	-12.079	45.78	0.37	9.656	6.889	9.19		-0.84	0.000
325.49	24.530	-12.584	45.82	0.37	9.550	6.781	11.30		-0.84	0.000
325.76	24.464	-13.053	45.89	0.38	9.484	6.662	-11.85		-0.84	0.000
326.03	24.398	-13.498	45.95	0.38	9.361	6.536	-33.30		-0.84	0.000
326.31	24.331	-13.894	46.02	0.38	9.236	6.403	-83.17		-0.84	0.000
326.58	24.282	-14.267	46.07	0.38	9.102	6.270	-111.71		-0.84	0.000
326.85	24.211	-14.615	46.14	0.38	8.979	6.139	-166.67		-0.84	0.000
327.13	24.137	-14.904	46.21	0.38	8.855	6.006	-184.46		-0.84	0.000
327.40	24.087	-15.168	46.26	0.38	8.735	5.942	-208.91		-0.84	0.000
327.67	24.011	-15.385	46.34	0.38	8.613	5.821	-225.07		-0.84	0.000
327.95	23.934	-15.553	46.42	0.38	8.499	5.703	-247.75		-0.84	0.000
328.23	23.854	-15.685	46.50	0.38	8.395	5.593	-258.05		-0.84	0.000
328.50	23.803	-15.781	46.55	0.38	8.344	5.490	-244.61		-0.84	0.000
328.78	23.723	-15.829	46.63	0.38	8.190	5.398	-194.78		-0.84	0.000
329.06	23.644	-15.841	46.71	0.38	8.045	5.292	-168.91		-0.84	0.000
329.33	23.566	-15.805	46.78	0.38	7.901	5.179	-114.57		-0.84	0.000
329.61	23.512	-15.733	46.84	0.38	7.754	5.070	-86.80		-0.84	0.000
329.88	23.434	-15.613	46.92	0.38	7.643	4.963	-32.34		-0.84	0.000
330.16	23.357	-15.445	46.99	0.38	7.544	4.876	-8.21		-0.84	0.000
330.43	23.280	-15.240	47.07	0.38	7.437	4.834	24.55		-0.84	0.000
330.70	23.230	-15.000	47.12	0.39	7.358	4.756	32.08		-0.84	0.000
330.97	23.155	-14.712	47.19	0.39	7.265	4.687	38.16		-0.84	0.000
331.24	23.084	-14.387	47.27	0.39	7.230	4.627	39.37		-0.84	0.000
331.52	23.035	-14.038	47.32	0.39	7.160	4.576	40.53		-0.84	0.000
331.79	22.967	-13.642	47.38	0.39	7.101	4.530	30.29		-0.84	0.000
332.05	22.900	-13.209	47.45	0.39	7.061	4.493	-19.29		-0.84	0.000
332.32	22.857	-12.740	47.49	0.39	7.013	4.459	-51.71		-0.84	0.000
332.60	22.794	-12.260	47.56	0.39	6.977	4.438	-101.06		-0.84	0.000
332.88	22.734	-11.731	47.62	0.39	6.944	4.417	-118.28		-0.84	0.000
333.15	22.675	-11.154	47.68	0.39	6.917	4.408	-139.20		-0.84	0.000
333.42	22.641	-10.553	47.71	0.39	6.894	4.394	-143.19		-0.84	0.000
333.70	22.589	-9.928	47.76	0.39	6.878	4.379	-127.76		-0.84	0.000
333.97	22.541	-9.279	47.81	0.39	6.873	4.370	-119.73		-0.84	0.000
334.24	22.497	-8.606	47.85	0.39	6.847	4.363	-116.26		-0.84	0.000
334.52	22.468	-7.921	47.88	0.39	6.831	4.357	-118.77		-0.84	0.000
334.80	22.432	-7.200	47.92	0.39	6.817	4.351	-81.29		-0.84	0.000
335.06	22.398	-6.454	47.95	0.39	6.807	4.347	-43.01		-0.84	0.000
335.34	22.370	-5.697	47.98	0.39	6.800	4.343	26.58		-0.84	0.000
335.61	22.352	-4.940	48.00	0.39	6.791	4.341	45.97		-0.84	0.000
335.88	22.329	-4.147	48.02	0.39	6.788	4.340	36.23		-0.84	0.000
336.15	22.313	-3.377	48.04	0.39	6.780	4.338	17.04		-0.84	0.000
336.42	22.303	-2.572	48.05	0.39	6.788	4.336	-12.06		-0.84	0.000
336.69	22.291	-1.767	48.06	0.39	6.790	4.337	-22.20		-0.84	0.000
336.96	22.289	-0.974	48.06	0.39	6.790	4.340	-33.06		-0.84	0.000
337.22	22.285	-0.168	48.06	0.39	6.786	4.344	-40.20		-0.84	0.000
337.49	22.285	0.637	48.06	0.39	6.791	4.347	-58.32		-0.84	0.000
337.76	22.285	1.418	48.06	0.39	6.802	4.352	-72.59		-0.84	0.000
338.03	22.285	2.224	48.06	0.39	6.807	4.353	-127.67		-0.84	0.000
338.30	22.291	2.993	48.06	0.39	6.798	4.356	-156.58		-0.84	0.000
338.57	22.308	3.786	48.04	0.39	6.803	4.360	-182.66		-0.84	0.000
338.84	22.325	4.567	48.03	0.39	6.810	4.361	-190.36		-0.84	0.000
339.11	22.349	5.325	48.00	0.39	6.814	4.364	-190.11		-0.84	0.000
339.38	22.380	6.082	47.97	0.39	6.810	4.366	-202.44		-0.84	0.000
339.65	22.400	6.815	47.95	0.39	6.809	4.368	-216.19		-0.84	0.000
339.93	22.438	7.548	47.91	0.39	6.819	4.369	-221.82		-0.84	0.000
340.20	22.477	8.257	47.87	0.39	6.810	4.370	-233.45		-0.84	0.000
340.47	22.520	8.942	47.83	0.39	6.825	4.372	-236.25		-0.84	0.000
340.75	22.552	9.603	47.80	0.39	6.831	4.374	-251.79		-0.84	0.000
341.02	22.600	10.228	47.75	0.39	6.834	4.376	-255.25		-0.84	0.000
341.30	22.653	10.853	47.70	0.39	6.846	4.383	-267.91		-0.84	0.000
341.56	22.690	11.430	47.66	0.39	6.848	4.388	-275.58		-0.84	0.000
341.84	22.749	11.983	47.60	0.39	6.875	4.396	-271.30		-0.84	0.000
342.11	22.809	12.488	47.54	0.39	6.881	4.402	-261.25		-0.84	0.000
342.39	22.873	12.981	47.48	0.39	6.909	4.412	-236.56		-0.84	0.000
342.65	22.918	13.425	47.43	0.39	6.916	4.422	-230.30		-0.84	0.000
342.92	22.986	13.846	47.36	0.39	6.936	4.433	-214.69		-0.84	0.000
343.20	23.057	14.219	47.29	0.39	6.955	4.439	-197.14		-0.84	0.000
343.47	23.105	14.555	47.24	0.39	6.967	4.449	-137.64		-0.84	0.000
343.75	23.177	14.868	47.17	0.39	6.998	4.461	-100.35		-0.84	0.000
344.01	23.253	15.120	47.10	0.39	7.013	4.474	-24.92		-0.84	0.000
344.28	23.329	15.349	47.02	0.38	7.073	4.488	8.69		-0.84	0.000
344.56	23.381	15.529	46.97	0.38	7.066	4.501	76.90		-0.84	0.000
344.83	23.459	15.673	46.89	0.38	7.113	4.516	103.75		-0.84	0.000
345.10	23.539	15.769	46.81	0.38	7.183	4.539	155.25		-0.84	0.000
345.37	23.589	15.829	46.76	0.38	7.167	4.558	181.26		-0.84	0.000
345.64	23.670	15.841	46.68	0.38	7.290	4.581	231.98		-0.84	0.000
345.91	23.748	15.817	46.60	0.38	7.319	4.610	235.27		-0.84	0.000
346.18	23.800	15.757	46.55	0.38	7.409	4.648	188.02		-0.84	0.000
346.45	23.880	15.649	46.47	0.38	7.464	4.698	146.15		-0.84	0.000
346.73	23.958	15.505	46.39	0.38	7.551	4.736	59.13		-0.84	0.000
346.99	24.009	15.325	46.34	0.38	7.612	4.799	15.24		-0.84	0.000
347.26	24.085	15.084	46.27	0.38	7.672	4.849	-57.72		-0.84	0.000
347.53	24.159	14.832	46.19	0.38	7.807	4.930	-92.89		-0.84	0.000
347.81	24.234	14.519	46.12	0.38	7.905	4.967	-168.58		-0.84	0.000
348.08	24.280	14.183	46.07	0.38	8.029	5.049	-211.25		-0.84	0.000
348.35	24.350	13.798	46.00	0.38	8.167	5.159	-312.89		-0.84	0.000
348.62	24.420	13.377	45.93	0.38	8.300	5.256	-357.17		-0.84	0.000
348.90	24.462	12.921	45.89	0.38	8.462	5.384	-376.37		-0.84	0.000
349.17	24.526	12.440	45.82	0.37	8.574	5.505	-352.00		-0.84	0.000
349.45	24.586	11.911	45.76	0.37	8.669	5.642	-267.33		-0.84	0.000
349.72	24.644	11.358	45.71	0.37	8.799	5.773	-218.09		-0.84	0.000
349.99	24.681	10.769	45.67	0.37	8.911	5.902	-122.72		-0.84	0.000
350.26	24.734	10.168	45.62	0.37	9.105	6.042	-93.72		-0.84	0.000
350.54	24.784	9.519	45.57	0.37	9.195	6.159	-52.05		-0.84	0.000
350.81	24.813	8.870	45.54	0.37	9.316	6.232	-43.12		-0.84	0.000
351.08	24.855	8.173	45.49	0.37	9.431	6.362	-37.58		-0.84	0.000
351.35	24.895	7.464	45.45	0.37	9.561	6.468	-35.72		-0.84	0.000
351.62	24.918	6.743	45.43	0.37	9.647	6.591	-35.27		-0.84	0.000
351.89	24.952	6.010	45.40	0.37	9.668	6.681	-45.48		-0.84	0.000
352.16	24.978	5.240	45.37	0.37	9.770	6.777	-71.80		-0.84	0.000
352.43	25.003	4.483	45.35	0.37	9.814	6.852	-88.33		-0.84	0.000
352.71	25.012	3.690	45.34	0.37	9.896	6.924	-142.49		-0.84	0.000
352.97	25.030	2.909	45.32	0.37	9.943	6.959	-160.53		-0.84	0.000
353.24	25.039	2.091	45.31	0.37	9.950	7.005	-177.19		-0.84	0.000
353.51	25.046	1.310	45.30	0.37	10.000	7.051	-164.28		-0.84	0.000
353.78	25.049	0.505	45.30	0.37	9.984	7.077	-118.66		-0.84	0.000
354.05	25.050	-0.288	45.30	0.37	10.006	7.100	-91.71		-0.84	0.000
354.32	25.050	-1.082	45.30	0.37	9.994	7.111	-58.12		-0.84	0.000
354.59	25.050	-1.887	45.30	0.37	9.990	7.113	-58.95		-0.84	0.000
354.86	25.050	-2.692	45.30	0.37	10.010	7.113	-86.72		-0.84	0.000
355.13	25.036	-3.474	45.31	0.37	9.979	7.112	-104.22		-0.84	0.000
355.41	25.017	-4.255	45.33	0.37	9.999	7.106	-137.68		-0.84	0.000
355.68	24.991	-5.036	45.36	0.37	9.959	7.101	-144.79		-0.84	0.000
355.96	24.966	-5.805	45.38	0.37	9.964	7.099	-169.93		-0.84	0.000
356.23	24.945	-6.575	45.40	0.37	9.933	7.091	-194.93		-0.84	0.000
356.51	24.908	-7.308	45.44	0.37	9.890	7.056	-260.26		-0.84	0.000
356.78	24.870	-8.029	45.48	0.37	9.897	7.025	-293.12		-0.84	0.000
357.06	24.828	-8.738	45.52	0.37	9.860	6.992	-335.39		-0.84	0.000
357.33	24.798	-9.399	45.55	0.37	9.868	6.978	-337.97		-0.84	0.000
357.61	24.749	-10.060	45.60	0.37	9.816	6.952	-300.38		-0.84	0.000
357.88	24.696	-10.661	45.65	0.37	9.747	6.921	-278.48		-0.84	0.000
358.16	24.641	-11.262	45.71	0.37	9.637	6.851	-251.62		-0.84	0.000
358.42	24.603	-11.815	45.75	0.37	9.559	6.807	-228.51		-0.84	0.000
358.71	24.544	-12.356	45.81	0.37	9.461	6.704	-171.65		-0.84	0.000
358.98	24.481	-12.837	45.87	0.38	9.350	6.596	-106.61		-0.84	0.000
359.25	24.437	-13.317	45.91	0.38	9.289	6.481	-86.52		-0.84	0.000
359.52	24.368	-13.726	45.98	0.38	9.140	6.342	-71.81		-0.84	0.000
359.79	24.299	-14.123	46.05	0.38	9.020	6.218	-60.37		-0.84	0.000
360.07	24.229	-14.471	46.12	0.38	8.866	6.077	-73.76		-0.84	0.000
360.34	24.179	-14.784	46.17	0.38	8.777	5.955	-88.27		-0.84	0.000
360.62	24.104	-15.060	46.25	0.38	8.617	5.821	-110.12		-0.84	0.000
360.90	24.030	-15.288	46.32	0.38	8.527	5.707	-114.73		-0.84	0.000
361.17	23.979	-15.493	46.37	0.38	8.409	5.649	-112.29		-0.84	0.000
361.44	23.899	-15.637	46.45	0.38	8.317	5.532	-119.37		-0.84	0.000
361.72	23.821	-15.745	46.53	0.38	8.281	5.437	-164.27		-0.84	0.000
361.99	23.743	-15.817	46.61	0.38	8.131	5.336	-176.08		-0.84	0.000
362.26	23.690	-15.841	46.66	0.38	7.999	5.254	-158.85		-0.84	0.000
362.54	23.611	-15.829	46.74	0.38	7.852	5.145	-130.85		-0.84	0.000
362.82	23.532	-15.769	46.82	0.38	7.703	5.027	-83.06		-0.84	0.000
363.09	23.453	-15.673	46.90	0.38	7.578	4.935	-68.04		-0.84	0.000
363.37	23.400	-15.529	46.95	0.38	7.473	4.835	-71.10		-0.84	0.000
363.64	23.323	-15.337	47.03	0.38	7.429	4.764	-85.62		-0.84	0.000
363.92	23.248	-15.108	47.10	0.39	7.266	4.683	-135.07		-0.84	0.000
364.18	23.173	-14.844	47.18	0.39	7.230	4.626	-168.65		-0.84	0.000
364.46	23.123	-14.543	47.23	0.39	7.201	4.596	-231.83		-0.84	0.000
364.73	23.050	-14.195	47.30	0.39	7.089	4.535	-256.32		-0.84	0.000
365.00	22.982	-13.822	47.37	0.39	7.083	4.500	-310.08		-0.84	0.000
365.28	22.936	-13.401	47.41	0.39	6.985	4.450	-344.25		-0.84	0.000
365.55	22.872	-12.957	47.48	0.39	6.979	4.428	-415.67		-0.84	0.000
365.83	22.807	-12.464	47.54	0.39	6.897	4.397	-441.01		-0.84	0.000
366.11	22.747	-11.935	47.60	0.39	6.910	4.379	-436.21		-0.84	0.000
366.37	22.708	-11.382	47.64	0.39	6.852	4.363	-413.18		-0.84	0.000
366.65	22.652	-10.781	47.70	0.39	6.838	4.348	-339.24		-0.84	0.000
366.92	22.599	-10.192	47.75	0.39	6.851	4.342	-301.90		-0.84	0.000
367.21	22.549	-9.543	47.80	0.39	6.783	4.330	-255.45		-0.84	0.000
367.48	22.518	-8.882	47.83	0.39	6.808	4.326	-248.19		-0.84	0.000
367.75	22.477	-8.173	47.87	0.39	6.769	4.317	-251.00		-0.84	0.000
368.02	22.439	-7.464	47.91	0.39	6.761	4.313	-238.48		-0.84	0.000
368.30	22.416	-6.743	47.93	0.39	6.745	4.311	-220.98		-0.84	0.000
368.57	22.385	-5.998	47.96	0.39	6.736	4.308	-168.38		-0.84	0.000
368.84	22.357	-5.216	47.99	0.39	6.748	4.306	-145.50		-0.84	0.000
369.12	22.334	-4.435	48.02	0.39	6.718	4.306	-118.02		-0.84	0.000
369.39	22.323	-3.654	48.03	0.39	6.738	4.302	-117.28		-0.84	0.000
369.66	22.306	-2.861	48.04	0.39	6.738	4.303	-124.51		-0.84	0.000
369.94	22.295	-2.031	48.05	0.39	6.718	4.303	-110.39		-0.84	0.000
370.21	22.288	-1.238	48.06	0.39	6.736	4.303	-42.26		-0.84	0.000
370.47	22.286	-0.421	48.06	0.39	6.717	4.308	8.77		-0.84	0.000
370.74	22.286	0.373	48.06	0.39	6.751	4.312	119.62		-0.84	0.000
371.00	22.286	1.166	48.06	0.39	6.723	4.316	145.60		-0.84	0.000
371.27	22.286	1.959	48.06	0.39	6.753	4.321	122.02		-0.84	0.000
371.54	22.288	2.740	48.06	0.39	6.758	4.323	85.81		-0.84	0.000
371.80	22.300	3.522	48.05	0.39	6.737	4.326	47.10		-0.84	0.000
372.07	22.321	4.291	48.03	0.39	6.763	4.327	-18.58		-0.84	0.000
372.34	22.347	5.048	48.00	0.39	6.742	4.330	-37.00		-0.84	0.000
372.61	22.363	5.793	47.99	0.39	6.761	4.331	-55.66		-0.84	0.000
372.88	22.394	6.538	47.96	0.39	6.747	4.331	-60.52		-0.84	0.000
373.16	22.430	7.284	47.92	0.39	6.767	4.333	-69.61		-0.84	0.000
373.43	22.468	7.981	47.88	0.39	6.756	4.334	-82.01		-0.84	0.000
373.71	22.497	8.678	47.85	0.39	6.749	4.336	-128.87		-0.84	0.000
373.98	22.541	9.363	47.81	0.39	6.781	4.341	-151.47		-0.84	0.000
374.26	22.590	10.012	47.76	0.39	6.763	4.343	-141.23		-0.84	0.000
374.53	22.623	10.637	47.73	0.39	6.785	4.346	-107.59		-0.84	0.000
374.80	22.680	11.226	47.67	0.39	6.789	4.349	-91.94		-0.84	0.000
375.07	22.738	11.779	47.61	0.39	6.803	4.356	-62.62		-0.84	0.000
375.34	22.798	12.308	47.55	0.39	6.819	4.364	-65.78		-0.84	0.000
375.61	22.839	12.800	47.51	0.39	6.838	4.368	-82.15		-0.84	0.000
375.88	22.904	13.257	47.45	0.39	6.861	4.382	-97.11		-0.84	0.000
376.16	22.971	13.690	47.38	0.39	6.862	4.390	-122.77		-0.84	0.000
376.43	23.017	14.075	47.33	0.39	6.890	4.400	-122.45		-0.84	0.000
376.70	23.090	14.435	47.26	0.39	6.905	4.408	-94.38		-0.84	0.000
376.98	23.161	14.748	47.19	0.39	6.922	4.420	-71.76		-0.84	0.000
377.25	23.236	15.024	47.11	0.39	6.954	4.428	-53.04		-0.84	0.000
377.52	23.288	15.276	47.06	0.38	6.969	4.439	-51.09		-0.84	0.000
377.80	23.363	15.469	46.99	0.38	7.007	4.453	-80.62		-0.84	0.000
378.07	23.443	15.625	46.91	0.38	7.031	4.466	-94.89		-0.84	0.000
378.34	23.493	15.733	46.86	0.38	7.069	4.479	-94.58		-0.84	0.000
378.61	23.572	15.817	46.78	0.38	7.121	4.503	-90.11		-0.84	0.000
378.89	23.652	15.841	46.70	0.38	7.174	4.528	-69.86		-0.84	0.000
379.16	23.705	15.829	46.64	0.38	7.249	4.561	-65.91		-0.84	0.000
379.43	23.785	15.781	46.57	0.38	7.300	4.596	-101.81		-0.84	0.000
379.70	23.862	15.685	46.49	0.38	7.374	4.637	-136.09		-0.84	0.000
379.98	23.941	15.553	46.41	0.38	7.443	4.655	-217.12		-0.84	0.000
380.25	23.993	15.373	46.36	0.38	7.532	4.702	-239.67		-0.84	0.000
380.52	24.070	15.168	46.28	0.38	7.621	4.757	-258.93		-0.84	0.000
380.79	24.143	14.904	46.21	0.38	7.677	4.814	-262.88		-0.84	0.000
381.07	24.217	14.615	46.13	0.38	7.779	4.888	-290.06		-0.84	0.000
381.34	24.266	14.279	46.08	0.38	7.895	4.968	-309.26		-0.84	0.000
381.61	24.335	13.906	46.02	0.38	8.034	5.065	-335.81		-0.84	0.000
381.89	24.405	13.498	45.94	0.38	8.170	5.170	-333.92		-0.84	0.000
382.17	24.448	13.053	45.90	0.38	8.300	5.285	-297.16		-0.84	0.000
382.44	24.512	12.560	45.84	0.37	8.445	5.408	-255.02		-0.84	0.000
382.71	24.573	12.043	45.78	0.37	8.583	5.532	-151.02		-0.84	0.000
382.98	24.631	11.490	45.72	0.37	8.714	5.595	-105.41		-0.84	0.000
383.25	24.671	10.913	45.68	0.37	8.849	5.725	-44.31		-0.84	0.000
383.53	24.723	10.313	45.63	0.37	8.918	5.856	-17.95		-0.84	0.000
383.80	24.773	9.688	45.58	0.37	9.044	5.987	56.48		-0.84	0.000
384.07	24.803	9.026	45.55	0.37	9.163	6.114	99.06		-0.84	0.000
384.34	24.848	8.353	45.50	0.37	9.303	6.234	169.68		-0.84	0.000
384.60	24.887	7.668	45.46	0.37	9.369	6.344	182.24		-0.84	0.000
384.87	24.912	6.947	45.44	0.37	9.477	6.458	161.22		-0.84	0.000
385.15	24.945	6.226	45.40	0.37	9.578	6.504	126.50		-0.84	0.000
385.42	24.972	5.469	45.38	0.37	9.662	6.601	23.71		-0.84	0.000
385.69	24.990	4.700	45.36	0.37	9.691	6.693	-24.47		-0.84	0.000
385.96	25.011	3.930	45.34	0.37	9.732	6.760	-67.84		-0.84	0.000
386.23	25.026	3.137	45.32	0.37	9.794	6.826	-69.08		-0.84	0.000
386.50	25.040	2.344	45.31	0.37	9.818	6.877	-69.46		-0.84	0.000
386.77	25.044	1.538	45.31	0.37	9.855	6.920	-72.27		-0.84	0.000
387.04	25.046	0.733	45.30	0.37	9.860	6.953	-83.14		-0.84	0.000
387.31	25.054	-0.072	45.30	0.37	9.889	6.966	-86.81		-0.84	0.000
387.58	25.054	-0.889	45.30	0.37	9.884	6.979	-79.68		-0.84	0.000
387.85	25.054	-1.683	45.30	0.37	9.874	6.988	-67.25		-0.84	0.000
388.12	25.052	-2.488	45.30	0.37	9.890	6.991	-28.57		-0.84	0.000
388.39	25.041	-3.269	45.31	0.37	9.875	6.991	-10.27		-0.84	0.000
388.66	25.022	-4.050	45.33	0.37	9.872	6.989	6.94		-0.84	0.000
388.93	24.999	-4.832	45.35	0.37	9.863	6.984	-8.21		-0.84	0.000
389.20	24.971	-5.577	45.38	0.37	9.843	6.976	-73.88		-0.84	0.000
389.49	24.953	-6.346	45.40	0.37	9.810	6.968	-113.88		-0.84	0.000
389.76	24.918	-7.079	45.43	0.37	9.768	6.931	-201.54		-0.84	0.000
390.04	24.880	-7.825	45.47	0.37	9.786	6.913	-231.87		-0.84	0.000
390.31	24.839	-8.522	45.51	0.37	9.754	6.885	-284.48		-0.84	0.000
390.59	24.808	-9.207	45.54	0.37	9.738	6.860	-304.48		-0.84	0.000
390.86	24.762	-9.868	45.59	0.37	9.739	6.845	-348.86		-0.84	0.000
391.14	24.711	-10.493	45.64	0.37	9.643	6.815	-353.63		-0.84	0.000
391.41	24.675	-11.094	45.68	0.37	9.571	6.767	-333.92		-0.84	0.000
391.69	24.620	-11.659	45.73	0.37	9.463	6.683	-316.05		-0.84	0.000
391.97	24.559	-12.212	45.79	0.37	9.367	6.586	-281.86		-0.84	0.000
392.24	24.496	-12.716	45.85	0.37	9.245	6.474	-268.82		-0.84	0.000
392.52	24.453	-13.197	45.90	0.38	9.129	6.350	-246.54		-0.84	0.000
392.79	24.386	-13.630	45.96	0.38	8.998	6.227	-224.60		-0.84	0.000
393.06	24.317	-14.026	46.03	0.38	8.927	6.092	-189.30		-0.84	0.000
393.34	24.246	-14.387	46.10	0.38	8.818	6.027	-163.16		-0.84	0.000
393.61	24.198	-14.712	46.15	0.38	8.677	5.901	-121.77		-0.84	0.000
393.89	24.123	-15.000	46.23	0.38	8.572	5.771	-108.55		-0.84	0.000
394.16	24.046	-15.240	46.30	0.38	8.454	5.652	-109.05		-0.84	0.000
394.44	23.971	-15.445	46.38	0.38	8.343	5.534	-109.00		-0.84	0.000
394.71	23.918	-15.613	46.43	0.38	8.242	5.430	-104.45		-0.84	0.000
394.99	23.840	-15.733	46.51	0.38	8.138	5.325	-76.56		-0.84	0.000
395.25	23.762	-15.805	46.59	0.38	8.036	5.239	-64.45		-0.84	0.000
395.53	23.708	-15.841	46.64	0.38	7.851	5.152	-80.09		-0.84	0.000
395.81	23.630	-15.841	46.72	0.38	7.811	5.050	-98.33		-0.84	0.000
396.08	23.552	-15.793	46.80	0.38	7.675	4.947	-163.23		-0.84	0.000
396.35	23.471	-15.697	46.88	0.38	7.535	4.896	-191.44		-0.84	0.000
396.63	23.420	-15.565	46.93	0.38	7.443	4.804	-203.24		-0.84	0.000
396.90	23.343	-15.397	47.01	0.38	7.342	4.719	-189.25		-0.84	0.000
397.18	23.266	-15.180	47.08	0.38	7.248	4.648	-175.89		-0.84	0.000
397.45	23.191	-14.916	47.16	0.39	7.162	4.578	-183.03		-0.84	0.000
397.72	23.141	-14.627	47.21	0.39	7.101	4.518	-209.76		-0.84	0.000
398.00	23.070	-14.291	47.28	0.39	7.036	4.472	-221.20		-0.84	0.000
398.27	22.999	-13.918	47.35	0.39	6.981	4.426	-220.75		-0.84	0.000
398.55	22.953	-13.510	47.40	0.39	6.963	4.395	-216.74		-0.84	0.000
398.82	22.886	-13.065	47.46	0.39	6.908	4.364	-219.66		-0.84	0.000
399.09	22.823	-12.584	47.53	0.39	6.883	4.339	-221.48		-0.84	0.000
399.37	22.761	-12.079	47.59	0.39	6.841	4.330	-224.02		-0.84	0.000
399.64	22.722	-11.526	47.63	0.39	6.815	4.312	-232.85		-0.84	0.000
399.91	22.666	-10.937	47.68	0.39	6.790	4.301	-259.28		-0.84	0.000
400.18	22.612	-10.337	47.74	0.39	6.763	4.289	-266.81		-0.84	0.000
400.46	22.562	-9.712	47.79	0.39	6.753	4.280	-287.63		-0.84	0.000
400.74	22.530	-9.062	47.82	0.39	6.727	4.273	-302.36		-0.84	0.000
401.01	22.489	-8.365	47.86	0.39	6.722	4.268	-338.06		-0.84	0.000
401.29	22.448	-7.656	47.90	0.39	6.719	4.262	-342.73		-0.84	0.000
401.56	22.425	-6.923	47.93	0.39	6.695	4.258	-320.14		-0.84	0.000
401.83	22.390	-6.178	47.96	0.39	6.692	4.255	-284.59		-0.84	0.000
402.11	22.364	-5.409	47.99	0.39	6.683	4.251	-208.59		-0.84	0.000
402.38	22.340	-4.651	48.01	0.39	6.677	4.250	-200.37		-0.84	0.000
402.66	22.325	-3.858	48.03	0.39	6.671	4.250	-215.05		-0.84	0.000
402.93	22.308	-3.053	48.04	0.39	6.679	4.250	-248.49		-0.84	0.000
403.20	22.298	-2.236	48.05	0.39	6.672	4.251	-246.64		-0.84	0.000
403.47	22.291	-1.430	48.06	0.39	6.664	4.253	-219.47		-0.84	0.000
403.75	22.284	-0.625	48.07	0.39	6.680	4.255	-196.19		-0.84	0.000
404.01	22.284	0.180	48.07	0.39	6.669	4.256	-145.56		-0.84	0.000
404.28	22.284	0.998	48.07	0.39	6.676	4.260	-122.94		-0.84	0.000
404.55	22.284	1.779	48.07	0.39	6.689	4.263	-103.16		-0.84	0.000
404.82	22.284	2.572	48.07	0.39	6.691	4.265	-101.04		-0.84	0.000
405.09	22.300	3.365	48.05	0.39	6.691	4.267	-100.97		-0.84	0.000
405.37	22.316	4.159	48.03	0.39	6.685	4.272	-44.34		-0.84	0.000
405.63	22.339	4.904	48.01	0.39	6.698	4.273	3.72		-0.84	0.000
405.90	22.364	5.697	47.99	0.39	6.687	4.273	108.35		-0.84	0.000
406.17	22.385	6.418	47.96	0.39	6.688	4.276	153.34		-0.84	0.000
406.43	22.420	7.151	47.93	0.39	6.699	4.277	229.98		-0.84	0.000
406.71	22.458	7.849	47.89	0.39	6.692	4.276	261.23		-0.84	0.000
406.98	22.485	8.546	47.87	0.39	6.703	4.276	297.70		-0.84	0.000
407.25	22.530	9.219	47.82	0.39	6.710	4.278	306.04		-0.84	0.000
407.53	22.577	9.856	47.77	0.39	6.714	4.281	314.99		-0.84	0.000
407.79	22.629	10.481	47.72	0.39	6.714	4.286	311.16		-0.84	0.000
408.07	22.664	11.082	47.69	0.39	6.721	4.289	266.52		-0.84	0.000
408.34	22.721	11.647	47.63	0.39	6.743	4.296	237.53		-0.84	0.000
408.61	22.780	12.188	47.57	0.39	6.750	4.302	156.59		-0.84	0.000
408.88	22.821	12.680	47.53	0.39	6.770	4.309	111.12		-0.84	0.000
409.14	22.888	13.149	47.46	0.39	6.783	4.322	-0.98		-0.84	0.000
409.42	22.953	13.582	47.40	0.39	6.799	4.325	-61.20		-0.84	0.000
409.69	23.000	13.978	47.35	0.39	6.822	4.334	-149.99		-0.84	0.000
409.97	23.072	14.339	47.28	0.39	6.830	4.343	-176.11		-0.84	0.000
410.23	23.144	14.663	47.21	0.39	6.853	4.354	-203.72		-0.84	0.000
410.51	23.217	14.964	47.13	0.39	6.872	4.364	-215.02		-0.84	0.000
410.78	23.268	15.204	47.08	0.38	6.897	4.376	-219.37		-0.84	0.000
411.06	23.344	15.421	47.01	0.38	6.922	4.388	-219.09		-0.84	0.000
411.33	23.421	15.589	46.93	0.38	6.947	4.398	-217.92		-0.84	0.000
411.60	23.473	15.709	46.88	0.38	7.003	4.413	-206.82		-0.84	0.000
411.88	23.552	15.793	46.80	0.38	7.046	4.431	-183.08		-0.84	0.000
412.15	23.631	15.841	46.72	0.38	7.113	4.446	-159.57		-0.84	0.000
412.42	23.711	15.841	46.64	0.38	7.137	4.472	-116.76		-0.84	0.000
412.70	23.763	15.793	46.59	0.38	7.203	4.501	-89.24		-0.84	0.000
412.98	23.843	15.721	46.51	0.38	7.265	4.537	-84.89		-0.84	0.000
413.25	23.920	15.589	46.43	0.38	7.326	4.575	-110.46		-0.84	0.000
413.52	23.973	15.421	46.38	0.38	7.408	4.620	-120.64		-0.84	0.000
413.79	24.049	15.216	46.30	0.38	7.484	4.665	-140.95		-0.84	0.000
414.07	24.123	14.964	46.23	0.38	7.587	4.724	-140.00		-0.84	0.000
414.34	24.200	14.675	46.15	0.38	7.689	4.788	-163.02		-0.84	0.000
414.62	24.246	14.351	46.10	0.38	7.804	4.868	-178.21		-0.84	0.000
414.88	24.316	13.978	46.03	0.38	7.924	4.955	-232.87		-0.84	0.000
415.16	24.386	13.582	45.96	0.38	7.984	5.000	-268.29		-0.84	0.000
415.43	24.431	13.149	45.92	0.38	8.129	5.106	-349.64		-0.84	0.000
415.71	24.495	12.668	45.85	0.37	8.260	5.218	-383.57		-0.84	0.000
415.98	24.558	12.175	45.79	0.37	8.400	5.339	-396.70		-0.84	0.000
416.25	24.616	11.623	45.73	0.37	8.523	5.462	-389.30		-0.84	0.000
416.53	24.655	11.058	45.69	0.37	8.667	5.589	-399.07		-0.84	0.000
416.80	24.709	10.457	45.64	0.37	8.794	5.719	-413.13		-0.84	0.000
417.07	24.761	9.832	45.59	0.37	8.923	5.845	-459.40		-0.84	0.000
417.34	24.791	9.183	45.56	0.37	9.038	5.971	-467.65		-0.84	0.000
417.62	24.836	8.498	45.51	0.37	9.097	6.087	-456.49		-0.84	0.000
417.89	24.878	7.813	45.47	0.37	9.207	6.145	-441.50		-0.84	0.000
418.16	24.913	7.091	45.44	0.37	9.303	6.256	-394.95		-0.84	0.000
418.44	24.936	6.346	45.41	0.37	9.394	6.358	-363.42		-0.84	0.000
418.71	24.967	5.601	45.38	0.37	9.475	6.456	-327.21		-0.84	0.000
418.98	24.991	4.832	45.36	0.37	9.541	6.540	-324.06		-0.84	0.000
419.25	25.012	4.050	45.34	0.37	9.600	6.614	-331.96		-0.84	0.000
419.52	25.021	3.245	45.33	0.37	9.641	6.676	-314.33		-0.84	0.000
419.79	25.034	2.452	45.32	0.37	9.682	6.731	-243.56		-0.84	0.000
420.06	25.048	1.647	45.30	0.37	9.693	6.772	-192.73		-0.84	0.000
420.33	25.049	0.841	45.30	0.37	9.727	6.786	-96.89		-0.84	0.000
420.59	25.052	0.048	45.30	0.37	9.724	6.819	-50.16		-0.84	0.000
420.86	25.052	-0.745	45.30	0.37	9.723	6.831	17.24		-0.84	0.000
421.12	25.052	-1.514	45.30	0.37	9.732	6.837	30.18		-0.84	0.000
421.38	25.052	-2.308	45.30	0.37	9.722	6.838	45.29		-0.84	0.000
421.65	25.044	-3.089	45.31	0.37	9.722	6.836	45.25		-0.84	0.000
421.93	25.028	-3.846	45.32	0.37	9.725	6.833	29.19		-0.84	0.000
422.20	25.005	-4.627	45.34	0.37	9.709	6.831	16.73		-0.84	0.000
422.47	24.980	-5.397	45.37	0.37	9.700	6.827	-31.95		-0.84	0.000
422.74	24.959	-6.154	45.39	0.37	9.668	6.820	-71.81		-0.84	0.000
423.02	24.927	-6.899	45.42	0.37	9.642	6.805	-165.72		-0.84	0.000
423.29	24.890	-7.620	45.46	0.37	9.636	6.769	-221.75		-0.84	0.000
423.57	24.864	-8.329	45.49	0.37	9.625	6.740	-321.52		-0.84	0.000
423.84	24.820	-9.014	45.53	0.37	9.601	6.721	-359.35		-0.84	0.000
424.11	24.773	-9.688	45.58	0.37	9.596	6.702	-413.07		-0.84	0.000
424.39	24.722	-10.313	45.63	0.37	9.548	6.681	-441.19		-0.84	0.000
424.67	24.687	-10.913	45.66	0.37	9.457	6.627	-495.67		-0.84	0.000
424.94	24.632	-11.502	45.72	0.37	9.374	6.550	-510.94		-0.84	0.000
425.22	24.571	-12.055	45.78	0.37	9.264	6.502	-497.99		-0.84	0.000
425.49	24.511	-12.572	45.84	0.37	9.151	6.397	-464.36		-0.84	0.000
425.76	24.468	-13.053	45.88	0.38	9.035	6.279	-373.66		-0.84	0.000
426.04	24.403	-13.498	45.95	0.38	8.915	6.156	-337.97		-0.84	0.000
426.31	24.334	-13.906	46.02	0.38	8.794	6.032	-277.43		-0.84	0.000
426.58	24.263	-14.279	46.09	0.38	8.671	5.903	-252.35		-0.84	0.000
426.86	24.213	-14.615	46.14	0.38	8.605	5.778	-189.37		-0.84	0.000
427.14	24.141	-14.916	46.21	0.38	8.488	5.654	-156.68		-0.84	0.000
427.42	24.064	-15.180	46.29	0.38	8.373	5.533	-91.70		-0.84	0.000
427.69	23.990	-15.385	46.36	0.38	8.259	5.423	-68.96		-0.84	0.000
427.97	23.936	-15.565	46.41	0.38	8.156	5.318	-39.19		-0.84	0.000
428.24	23.859	-15.697	46.49	0.38	8.064	5.270	-37.30		-0.84	0.000
428.51	23.781	-15.793	46.57	0.38	7.942	5.175	-38.06		-0.84	0.000
428.78	23.727	-15.841	46.62	0.38	7.792	5.093	-34.66		-0.84	0.000
429.06	23.649	-15.841	46.70	0.38	7.666	4.992	2.98		-0.84	0.000
429.32	23.568	-15.805	46.78	0.38	7.541	4.888	18.86		-0.84	0.000
429.59	23.517	-15.733	46.83	0.38	7.481	4.798	15.05		-0.84	0.000
429.87	23.439	-15.613	46.91	0.38	7.375	4.709	4.29		-0.84	0.000
430.15	23.361	-15.457	46.99	0.38	7.286	4.633	-1.59		-0.84	0.000
430.43	23.284	-15.252	47.07	0.38	7.187	4.566	26.71		-0.84	0.000
430.70	23.234	-15.012	47.12	0.39	7.111	4.504	42.07		-0.84	0.000
430.97	23.159	-14.724	47.19	0.39	7.037	4.474	38.88		-0.84	0.000
431.24	23.085	-14.387	47.27	0.39	6.973	4.423	16.99		-0.84	0.000
431.51	23.039	-14.038	47.31	0.39	6.923	4.380	-42.09		-0.84	0.000
431.78	22.968	-13.654	47.38	0.39	6.864	4.345	-72.90		-0.84	0.000
432.06	22.902	-13.221	47.45	0.39	6.846	4.316	-131.26		-0.84	0.000
432.35	22.838	-12.752	47.51	0.39	6.817	4.287	-133.57		-0.84	0.000
432.62	22.775	-12.236	47.58	0.39	6.775	4.269	-117.01		-0.84	0.000
432.89	22.734	-11.683	47.62	0.39	6.755	4.256	-104.28		-0.84	0.000
433.16	22.677	-11.118	47.67	0.39	6.722	4.241	-108.25		-0.84	0.000
433.44	22.623	-10.517	47.73	0.39	6.706	4.234	-136.35		-0.84	0.000
433.72	22.589	-9.904	47.76	0.39	6.682	4.222	-199.00		-0.84	0.000
433.99	22.541	-9.243	47.81	0.39	6.666	4.217	-229.81		-0.84	0.000
434.26	22.499	-8.570	47.85	0.39	6.652	4.214	-288.65		-0.84	0.000
434.53	22.458	-7.861	47.89	0.39	6.644	4.207	-312.36		-0.84	0.000
434.81	22.434	-7.139	47.92	0.39	6.631	4.203	-361.31		-0.84	0.000
435.08	22.400	-6.418	47.95	0.39	6.626	4.199	-385.41		-0.84	0.000
435.36	22.370	-5.649	47.98	0.39	6.613	4.196	-424.83		-0.84	0.000
435.63	22.344	-4.880	48.01	0.39	6.608	4.194	-439.08		-0.84	0.000
435.90	22.329	-4.087	48.02	0.39	6.602	4.193	-453.77		-0.84	0.000
436.17	22.314	-3.293	48.04	0.39	6.606	4.194	-438.02		-0.84	0.000
436.45	22.298	-2.500	48.05	0.39	6.607	4.196	-355.35		-0.84	0.000
436.72	22.294	-1.695	48.06	0.39	6.610	4.198	-301.03		-0.84	0.000
436.99	22.288	-0.889	48.06	0.39	6.610	4.199	-196.79		-0.84	0.000
437.26	22.286	-0.072	48.06	0.39	6.609	4.202	-145.29		-0.84	0.000
437.53	22.286	0.721	48.06	0.39	6.618	4.205	-52.75		-0.84	0.000
437.79	22.286	1.526	48.06	0.39	6.615	4.208	-12.78		-0.84	0.000
438.06	22.286	2.320	48.06	0.39	6.618	4.213	70.30		-0.84	0.000
438.32	22.293	3.101	48.06	0.39	6.625	4.217	106.53		-0.84	0.000
438.60	22.311	3.870	48.04	0.39	6.628	4.221	156.01		-0.84	0.000
438.87	22.332	4.639	48.02	0.39	6.630	4.221	157.37		-0.84	0.000
439.15	22.350	5.421	48.00	0.39	6.627	4.222	122.43		-0.84	0.000
439.41	22.377	6.166	47.97	0.39	6.629	4.223	98.43		-0.84	0.000
439.68	22.411	6.923	47.94	0.39	6.634	4.223	68.21		-0.84	0.000
439.95	22.449	7.620	47.90	0.39	6.636	4.225	62.06		-0.84	0.000
440.22	22.475	8.317	47.88	0.39	6.633	4.228	60.90		-0.84	0.000
440.49	22.518	8.990	47.83	0.39	6.641	4.230	68.35		-0.84	0.000
440.76	22.564	9.651	47.79	0.39	6.652	4.231	82.55		-0.84	0.000
441.03	22.597	10.264	47.75	0.39	6.647	4.235	69.59		-0.84	0.000
441.31	22.650	10.877	47.70	0.39	6.660	4.235	7.40		-0.84	0.000
441.57	22.707	11.442	47.64	0.39	6.672	4.239	-36.70		-0.84	0.000
441.84	22.744	11.995	47.61	0.39	6.679	4.247	-75.40		-0.84	0.000
442.12	22.808	12.500	47.54	0.39	6.702	4.254	-85.49		-0.84	0.000
442.39	22.872	12.981	47.48	0.39	6.716	4.263	-105.48		-0.84	0.000
442.66	22.916	13.438	47.43	0.39	6.734	4.274	-127.60		-0.84	0.000
442.93	22.982	13.858	47.37	0.39	6.753	4.282	-172.27		-0.84	0.000
443.21	23.053	14.231	47.30	0.39	6.769	4.292	-192.63		-0.84	0.000
443.47	23.123	14.567	47.23	0.39	6.783	4.302	-211.20		-0.84	0.000
443.75	23.173	14.868	47.18	0.39	6.796	4.305	-210.04		-0.84	0.000
444.02	23.249	15.120	47.10	0.39	6.817	4.313	-158.59		-0.84	0.000
444.30	23.325	15.349	47.03	0.38	6.842	4.326	-115.89		-0.84	0.000
444.57	23.377	15.529	46.97	0.38	6.866	4.340	-60.46		-0.84	0.000
444.85	23.454	15.673	46.90	0.38	6.895	4.351	-54.60		-0.84	0.000
445.12	23.532	15.769	46.82	0.38	6.959	4.366	-40.17		-0.84	0.000
445.38	23.612	15.829	46.74	0.38	7.004	4.385	-23.01		-0.84	0.000
445.66	23.664	15.841	46.69	0.38	7.071	4.408	37.01		-0.84	0.000
445.92	23.744	15.817	46.61	0.38	7.128	4.437	59.82		-0.84	0.000
446.19	23.822	15.745	46.53	0.38	7.163	4.455	71.17		-0.84	0.000
446.46	23.875	15.649	46.48	0.38	7.229	4.490	60.02		-0.84	0.000
446.74	23.954	15.493	46.40	0.38	7.297	4.528	21.92		-0.84	0.000
447.00	24.030	15.312	46.32	0.38	7.373	4.571	-11.13		-0.84	0.000
447.27	24.080	15.084	46.27	0.38	7.455	4.620	-89.45		-0.84	0.000
447.54	24.157	14.820	46.19	0.38	7.562	4.674	-119.01		-0.84	0.000
447.81	24.227	14.507	46.12	0.38	7.657	4.740	-168.46		-0.84	0.000
448.09	24.277	14.159	46.07	0.38	7.717	4.818	-183.48		-0.84	0.000
448.36	24.346	13.786	46.00	0.38	7.845	4.904	-204.26		-0.84	0.000
448.63	24.416	13.365	45.93	0.38	7.971	4.954	-203.08		-0.84	0.000
448.91	24.480	12.909	45.87	0.38	8.098	5.057	-176.28		-0.84	0.000
449.18	24.523	12.416	45.83	0.37	8.233	5.169	-147.15		-0.84	0.000
449.45	24.582	11.887	45.77	0.37	8.363	5.288	-103.06		-0.84	0.000
449.72	24.640	11.346	45.71	0.37	8.492	5.413	-94.22		-0.84	0.000
450.00	24.677	10.757	45.67	0.37	8.625	5.537	-61.75		-0.84	0.000
450.26	24.730	10.144	45.62	0.37	8.740	5.663	-45.50		-0.84	0.000
450.53	24.778	9.507	45.57	0.37	8.817	5.784	-14.60		-0.84	0.000
450.80	24.825	8.858	45.53	0.37	8.927	5.903	-1.33		-0.84	0.000
451.07	24.854	8.173	45.50	0.37	9.026	5.961	16.09		-0.84	0.000
451.34	24.893	7.476	45.46	0.37	9.131	6.072	24.05		-0.84	0.000
451.60	24.927	6.755	45.42	0.37	9.235	6.178	33.43		-0.84	0.000
451.88	24.948	6.022	45.40	0.37	9.305	6.278	35.73		-0.84	0.000
452.15	24.977	5.288	45.37	0.37	9.380	6.368	39.26		-0.84	0.000
452.41	24.999	4.519	45.35	0.37	9.417	6.448	50.79		-0.85	0.000
452.68	25.013	3.738	45.34	0.37	9.463	6.519	39.91		-0.85	0.000
452.94	25.028	2.969	45.32	0.37	9.512	6.549	20.21		-0.85	0.000
453.22	25.036	2.175	45.31	0.37	9.554	6.603	-5.35		-0.85	0.000
453.48	25.046	1.394	45.30	0.37	9.567	6.645	-14.42		-0.85	0.000
453.74	25.049	0.577	45.30	0.37	9.577	6.677	-22.58		-0.85	0.000
454.01	25.050	-0.192	45.30	0.37	9.587	6.699	-59.49		-0.85	0.000
454.28	25.050	-0.974	45.30	0.37	9.580	6.708	-99.02		-0.85	0.000
454.55	25.050	-1.791	45.30	0.37	9.584	6.711	-208.35		-0.85	0.000
454.81	25.050	-2.572	45.30	0.37	9.591	6.711	-273.91		-0.85	0.000
455.09	25.036	-3.365	45.31	0.37	9.589	6.710	-415.29		-0.85	0.000
455.36	25.017	-4.135	45.33	0.37	9.582	6.709	-488.04		-0.85	0.000
455.64	24.995	-4.928	45.35	0.37	9.565	6.706	-532.54		-0.85	0.000
455.91	24.977	-5.685	45.37	0.37	9.552	6.701	-514.17		-0.85	0.000
456.21	24.945	-6.454	45.40	0.37	9.513	6.695	-444.74		-0.85	0.000
456.46	24.911	-7.175	45.44	0.37	9.500	6.668	-404.71		-0.85	0.000
456.74	24.872	-7.957	45.48	0.37	9.494	6.637	-321.45		-0.85	0.000
457.01	24.844	-8.594	45.51	0.37	9.483	6.612	-221.19		-0.85	0.000
457.28	24.800	-9.291	45.55	0.37	9.470	6.593	-161.83		-0.85	0.000
457.55	24.752	-9.940	45.60	0.37	9.441	6.573	-28.43		-0.85	0.000
457.82	24.718	-10.553	45.63	0.37	9.364	6.562	42.74		-0.85	0.000
458.09	24.663	-11.154	45.69	0.37	9.283	6.517	126.70		-0.85	0.000
458.37	24.607	-11.707	45.74	0.37	9.186	6.442	129.93		-0.85	0.000
458.64	24.545	-12.224	45.80	0.37	9.072	6.343	71.14		-0.85	0.000
458.91	24.505	-12.740	45.84	0.37	9.014	6.230	37.54		-0.85	0.000
459.18	24.440	-13.209	45.91	0.38	8.899	6.109	-0.73		-0.85	0.000
459.45	24.373	-13.642	45.98	0.38	8.776	5.990	-13.52		-0.85	0.000
459.72	24.327	-14.026	46.02	0.38	8.654	5.865	-66.00		-0.85	0.000
460.00	24.255	-14.387	46.09	0.38	8.537	5.740	-108.11		-0.85	0.000
460.28	24.182	-14.700	46.17	0.38	8.411	5.618	-211.69		-0.85	0.000
460.55	24.109	-14.988	46.24	0.38	8.296	5.557	-256.39		-0.85	0.000
460.83	24.058	-15.240	46.29	0.38	8.190	5.443	-304.36		-0.85	0.000
461.10	23.981	-15.445	46.37	0.38	8.086	5.334	-287.58		-0.85	0.000
461.37	23.903	-15.613	46.45	0.38	8.044	5.235	-220.20		-0.85	0.000
461.65	23.852	-15.733	46.50	0.38	7.945	5.141	-185.35		-0.85	0.000
461.92	23.773	-15.805	46.58	0.38	7.848	5.057	-150.31		-0.85	0.000
462.20	23.693	-15.841	46.66	0.38	7.694	4.981	-141.38		-0.85	0.000
462.47	23.614	-15.841	46.74	0.38	7.579	4.887	-131.36		-0.85	0.000
462.74	23.562	-15.781	46.79	0.38	7.447	4.793	-129.46		-0.85	0.000
463.02	23.482	-15.697	46.87	0.38	7.320	4.701	-127.97		-0.85	0.000
463.29	23.405	-15.565	46.94	0.38	7.231	4.616	-132.53		-0.85	0.000
463.57	23.329	-15.397	47.02	0.38	7.138	4.578	-161.81		-0.85	0.000
463.84	23.277	-15.180	47.07	0.38	7.054	4.511	-193.95		-0.85	0.000
464.11	23.203	-14.916	47.15	0.39	7.018	4.451	-257.32		-0.85	0.000
464.39	23.129	-14.627	47.22	0.39	6.944	4.397	-273.25		-0.85	0.000
464.67	23.080	-14.291	47.27	0.39	6.888	4.353	-264.86		-0.85	0.000
464.94	23.008	-13.918	47.34	0.39	6.837	4.316	-256.28		-0.85	0.000
465.22	22.939	-13.498	47.41	0.39	6.785	4.287	-247.33		-0.85	0.000
465.49	22.875	-13.053	47.48	0.39	6.755	4.261	-246.38		-0.85	0.000
465.77	22.831	-12.560	47.52	0.39	6.714	4.239	-248.20		-0.85	0.000
466.04	22.770	-12.055	47.58	0.39	6.689	4.225	-242.62		-0.85	0.000
466.31	22.711	-11.502	47.64	0.39	6.665	4.212	-215.85		-0.85	0.000
466.58	22.656	-10.937	47.69	0.39	6.642	4.207	-198.11		-0.85	0.000
466.86	22.620	-10.325	47.73	0.39	6.627	4.200	-140.84		-0.85	0.000
467.13	22.570	-9.700	47.78	0.39	6.615	4.189	-116.25		-0.85	0.000
467.41	22.522	-9.038	47.83	0.39	6.596	4.183	-120.84		-0.85	0.000
467.68	22.494	-8.353	47.86	0.39	6.574	4.178	-170.61		-0.85	0.000
467.95	22.453	-7.644	47.90	0.39	6.571	4.174	-196.88		-0.85	0.000
468.23	22.417	-6.923	47.93	0.39	6.555	4.171	-208.58		-0.85	0.000
468.50	22.385	-6.178	47.96	0.39	6.547	4.168	-184.70		-0.85	0.000
468.78	22.367	-5.409	47.98	0.39	6.542	4.166	-107.91		-0.85	0.000
469.05	22.341	-4.639	48.01	0.39	6.537	4.164	-63.43		-0.85	0.000
469.32	22.322	-3.846	48.03	0.39	6.534	4.164	9.81		-0.85	0.000
469.59	22.306	-3.041	48.04	0.39	6.533	4.164	34.76		-0.85	0.000
469.86	22.297	-2.236	48.05	0.39	6.537	4.166	76.92		-0.85	0.000
470.13	22.290	-1.454	48.06	0.39	6.531	4.169	108.45		-0.85	0.000
470.40	22.286	-0.649	48.06	0.39	6.533	4.171	154.71		-0.85	0.000
470.66	22.284	0.144	48.07	0.39	6.546	4.172	156.37		-0.85	0.000
470.92	22.284	0.950	48.07	0.39	6.551	4.176	139.71		-0.85	0.000
471.19	22.284	1.719	48.07	0.39	6.541	4.181	72.67		-0.85	0.000
471.45	22.284	2.512	48.07	0.39	6.553	4.183	27.72		-0.85	0.000
471.73	22.297	3.305	48.05	0.39	6.555	4.186	-52.06		-0.85	0.000
471.99	22.312	4.050	48.04	0.39	6.551	4.187	-94.56		-0.85	0.000
472.26	22.334	4.832	48.02	0.39	6.554	4.189	-161.09		-0.85	0.000
472.54	22.362	5.589	47.99	0.39	6.563	4.190	-186.93		-0.85	0.000
472.81	22.393	6.346	47.96	0.39	6.556	4.192	-213.01		-0.85	0.000
473.08	22.413	7.079	47.94	0.39	6.558	4.194	-219.60		-0.85	0.000
473.35	22.453	7.788	47.90	0.39	6.563	4.195	-221.56		-0.85	0.000
473.62	22.493	8.474	47.86	0.39	6.561	4.196	-205.75		-0.85	0.000
473.90	22.522	9.159	47.83	0.39	6.576	4.197	-141.08		-0.85	0.000
474.17	22.568	9.808	47.78	0.39	6.568	4.201	-96.30		-0.85	0.000
474.44	22.621	10.445	47.73	0.39	6.576	4.203	-16.92		-0.85	0.000
474.70	22.656	11.034	47.69	0.39	6.585	4.207	9.80		-0.85	0.000
474.97	22.713	11.599	47.64	0.39	6.607	4.210	33.50		-0.85	0.000
475.24	22.772	12.115	47.58	0.39	6.610	4.217	37.86		-0.85	0.000
475.51	22.814	12.620	47.54	0.39	6.628	4.225	24.04		-0.85	0.000
475.77	22.877	13.089	47.47	0.39	6.645	4.228	11.04		-0.85	0.000
476.05	22.944	13.522	47.41	0.39	6.652	4.238	-7.13		-0.85	0.000
476.31	22.990	13.918	47.36	0.39	6.675	4.246	1.77		-0.85	0.000
476.58	23.061	14.291	47.29	0.39	6.696	4.256	43.85		-0.85	0.000
476.85	23.132	14.615	47.22	0.39	6.711	4.265	62.23		-0.85	0.000
477.12	23.181	14.904	47.17	0.39	6.728	4.276	82.66		-0.85	0.000
477.39	23.257	15.156	47.09	0.39	6.746	4.284	87.18		-0.85	0.000
477.66	23.332	15.373	47.02	0.38	6.762	4.296	115.22		-0.85	0.000
477.93	23.412	15.553	46.94	0.38	6.786	4.301	130.48		-0.85	0.000
478.21	23.462	15.685	46.89	0.38	6.833	4.310	136.14		-0.85	0.000
478.47	23.541	15.781	46.81	0.38	6.885	4.323	128.78		-0.85	0.000
478.74	23.620	15.829	46.73	0.38	6.930	4.344	86.36		-0.85	0.000
479.02	23.672	15.841	46.68	0.38	6.989	4.369	52.98		-0.85	0.000
479.29	23.752	15.817	46.60	0.38	7.019	4.396	-39.43		-0.85	0.000
479.56	23.831	15.745	46.52	0.38	7.075	4.428	-95.84		-0.85	0.000
479.84	23.884	15.625	46.47	0.38	7.140	4.461	-207.79		-0.85	0.000
480.11	23.962	15.469	46.39	0.38	7.212	4.495	-255.90		-0.85	0.000
480.38	24.038	15.276	46.31	0.38	7.292	4.513	-347.92		-0.85	0.000
480.65	24.114	15.036	46.24	0.38	7.372	4.558	-392.70		-0.85	0.000
480.93	24.164	14.760	46.19	0.38	7.468	4.611	-453.60		-0.85	0.000
481.20	24.236	14.447	46.11	0.38	7.571	4.674	-462.80		-0.85	0.000
481.47	24.307	14.099	46.04	0.38	7.682	4.747	-436.53		-0.85	0.000
481.75	24.354	13.714	46.00	0.38	7.742	4.829	-413.31		-0.85	0.000
482.02	24.422	13.281	45.93	0.38	7.871	4.925	-363.48		-0.85	0.000
482.29	24.487	12.812	45.86	0.37	7.998	5.030	-340.78		-0.85	0.000
482.57	24.549	12.320	45.80	0.37	8.130	5.143	-314.25		-0.85	0.000
482.83	24.590	11.791	45.76	0.37	8.253	5.261	-307.41		-0.85	0.000
483.11	24.646	11.226	45.70	0.37	8.382	5.321	-294.64		-0.85	0.000
483.38	24.702	10.649	45.65	0.37	8.511	5.441	-271.11		-0.85	0.000
483.66	24.737	10.024	45.61	0.37	8.642	5.562	-210.62		-0.85	0.000
483.93	24.784	9.375	45.57	0.37	8.747	5.685	-176.01		-0.85	0.000
484.20	24.831	8.714	45.52	0.37	8.806	5.806	-146.99		-0.85	0.000
484.48	24.871	8.029	45.48	0.37	8.918	5.919	-151.28		-0.85	0.000
484.75	24.898	7.308	45.45	0.37	9.011	6.028	-162.74		-0.85	0.000
485.02	24.931	6.575	45.42	0.37	9.111	6.130	-166.00		-0.85	0.000
485.30	24.961	5.829	45.39	0.37	9.189	6.224	-154.71		-0.85	0.000
485.56	24.977	5.072	45.37	0.37	9.247	6.307	-143.19		-0.85	0.000
485.84	25.002	4.267	45.35	0.37	9.318	6.346	-139.18		-0.85	0.000
486.11	25.021	3.498	45.33	0.37	9.353	6.413	-148.77		-0.85	0.000
486.38	25.034	2.680	45.32	0.37	9.408	6.469	-176.12		-0.85	0.000
486.65	25.041	1.887	45.31	0.37	9.420	6.516	-182.91		-0.85	0.000
486.92	25.049	1.082	45.30	0.37	9.430	6.557	-180.18		-0.85	0.000
487.19	25.049	0.288	45.30	0.37	9.455	6.587	-160.50		-0.85	0.000
487.46	25.050	-0.517	45.30	0.37	9.453	6.603	-134.83		-0.85	0.000
487.72	25.050	-1.310	45.30	0.37	9.454	6.609	-126.54		-0.85	0.000
488.00	25.050	-2.127	45.30	0.37	9.446	6.609	-102.89		-0.85	0.000
488.26	25.050	-2.897	45.30	0.37	9.452	6.609	-77.03		-0.85	0.000
488.54	25.030	-3.702	45.32	0.37	9.450	6.607	-0.11		-0.85	0.000
488.80	25.011	-4.471	45.34	0.37	9.445	6.603	50.21		-0.85	0.000
489.08	24.991	-5.240	45.36	0.37	9.441	6.602	129.85		-0.85	0.000
489.35	24.963	-5.986	45.39	0.37	9.417	6.598	151.50		-0.85	0.000
489.63	24.931	-6.743	45.42	0.37	9.376	6.588	164.68		-0.85	0.000
489.90	24.895	-7.464	45.45	0.37	9.366	6.552	159.26		-0.85	0.000
490.17	24.870	-8.197	45.48	0.37	9.351	6.522	144.80		-0.85	0.000
490.45	24.826	-8.870	45.52	0.37	9.343	6.501	142.19		-0.85	0.000
490.72	24.780	-9.543	45.57	0.37	9.317	6.493	137.67		-0.85	0.000
491.00	24.745	-10.168	45.60	0.37	9.250	6.473	129.62		-0.85	0.000
491.26	24.694	-10.793	45.66	0.37	9.218	6.442	96.97		-0.85	0.000
491.56	24.639	-11.382	45.71	0.37	9.131	6.377	65.76		-0.85	0.000
491.83	24.581	-11.911	45.77	0.37	9.025	6.290	15.57		-0.85	0.000
492.09	24.539	-12.476	45.81	0.37	8.917	6.186	1.39		-0.85	0.000
492.37	24.476	-12.957	45.87	0.38	8.814	6.072	-39.39		-0.85	0.000
492.64	24.409	-13.401	45.94	0.38	8.682	5.949	-115.61		-0.85	0.000
492.92	24.343	-13.822	46.01	0.38	8.561	5.827	-158.73		-0.85	0.000
493.19	24.295	-14.195	46.05	0.38	8.434	5.700	-237.07		-0.85	0.000
493.46	24.223	-14.543	46.13	0.38	8.322	5.579	-265.53		-0.85	0.000
493.74	24.149	-14.844	46.20	0.38	8.205	5.517	-315.61		-0.85	0.000
494.01	24.075	-15.108	46.28	0.38	8.149	5.401	-342.99		-0.85	0.000
494.29	24.025	-15.349	46.33	0.38	8.050	5.293	-389.43		-0.85	0.000
494.56	23.946	-15.529	46.40	0.38	7.953	5.189	-403.15		-0.85	0.000
494.83	23.870	-15.673	46.48	0.38	7.862	5.099	-416.01		-0.85	0.000
495.11	23.816	-15.769	46.53	0.38	7.767	5.011	-402.27		-0.85	0.000
495.38	23.739	-15.829	46.61	0.38	7.649	4.937	-333.55		-0.85	0.000
495.66	23.659	-15.841	46.69	0.38	7.504	4.858	-279.85		-0.85	0.000
495.92	23.580	-15.817	46.77	0.38	7.384	4.764	-162.08		-0.85	0.000
496.20	23.526	-15.745	46.82	0.38	7.262	4.678	-118.75		-0.85	0.000
496.47	23.448	-15.649	46.90	0.38	7.163	4.588	-54.02		-0.85	0.000
496.74	23.371	-15.493	46.98	0.38	7.121	4.547	-27.59		-0.85	0.000
497.01	23.320	-15.300	47.03	0.38	7.033	4.480	3.48		-0.85	0.000
497.28	23.243	-15.072	47.11	0.39	6.951	4.421	11.03		-0.85	0.000
497.55	23.168	-14.808	47.18	0.39	6.886	4.365	10.05		-0.85	0.000
497.81	23.120	-14.495	47.23	0.39	6.823	4.320	-2.94		-0.85	0.000
498.09	23.049	-14.159	47.30	0.39	6.776	4.283	-57.92		-0.85	0.000
498.36	22.977	-13.786	47.37	0.39	6.720	4.250	-100.46		-0.85	0.000
498.64	22.911	-13.365	47.44	0.39	6.702	4.227	-203.02		-0.85	0.000
498.91	22.866	-12.909	47.48	0.39	6.667	4.206	-251.64		-0.85	0.000
499.18	22.803	-12.404	47.55	0.39	6.631	4.194	-328.93		-0.85	0.000
499.46	22.744	-11.887	47.61	0.39	6.612	4.181	-361.70		-0.85	0.000
499.73	22.703	-11.334	47.65	0.39	6.587	4.167	-400.91		-0.85	0.000
500.01	22.648	-10.745	47.70	0.39	6.561	4.161	-397.40		-0.85	0.000
500.29	22.597	-10.120	47.75	0.39	6.544	4.150	-362.17		-0.85	0.000
500.56	22.547	-9.471	47.80	0.39	6.535	4.143	-338.38		-0.85	0.000
500.84	22.517	-8.786	47.83	0.39	6.513	4.137	-299.88		-0.85	0.000
501.11	22.473	-8.101	47.88	0.39	6.501	4.133	-282.40		-0.85	0.000
501.39	22.436	-7.380	47.91	0.39	6.490	4.130	-235.02		-0.85	0.000
501.66	22.400	-6.659	47.95	0.39	6.485	4.128	-209.63		-0.85	0.000
501.94	22.380	-5.901	47.97	0.39	6.478	4.125	-175.72		-0.85	0.000
502.21	22.354	-5.144	48.00	0.39	6.469	4.124	-157.34		-0.85	0.000
502.48	22.331	-4.351	48.02	0.39	6.468	4.124	-105.90		-0.85	0.000
502.76	22.312	-3.558	48.04	0.39	6.464	4.123	-80.90		-0.85	0.000
503.03	22.303	-2.752	48.05	0.39	6.460	4.124	-49.11		-0.85	0.000
503.30	22.293	-1.947	48.06	0.39	6.465	4.127	-48.65		-0.85	0.000
503.57	22.282	-1.130	48.07	0.39	6.466	4.129	-64.75		-0.85	0.000
503.84	22.282	-0.337	48.07	0.39	6.460	4.130	-76.20		-0.85	0.000
504.11	22.282	0.481	48.07	0.39	6.477	4.132	-80.10		-0.85	0.000
504.37	22.282	1.286	48.07	0.39	6.473	4.135	-78.19		-0.85	0.000
504.65	22.282	2.079	48.07	0.39	6.475	4.137	-82.24		-0.85	0.000
504.91	22.289	2.849	48.06	0.39	6.482	4.140	-82.32		-0.85	0.000
505.19	22.307	3.666	48.04	0.39	6.486	4.143	-105.56		-0.85	0.000
505.46	22.318	4.411	48.03	0.39	6.481	4.146	-122.40		-0.85	0.000
505.73	22.345	5.192	48.00	0.39	6.484	4.147	-152.90		-0.85	0.000
505.99	22.373	5.962	47.98	0.39	6.490	4.149	-172.86		-0.85	0.000
506.27	22.404	6.683	47.95	0.39	6.486	4.150	-194.73		-0.85	0.000
506.54	22.429	7.404	47.92	0.39	6.490	4.153	-212.89		-0.85	0.000
506.81	22.467	8.125	47.88	0.39	6.485	4.154	-243.31		-0.85	0.000
507.08	22.509	8.798	47.84	0.39	6.494	4.153	-266.94		-0.85	0.000
507.36	22.539	9.471	47.81	0.39	6.495	4.154	-317.34		-0.85	0.000
507.63	22.590	10.096	47.76	0.39	6.506	4.156	-338.81		-0.85	0.000
507.90	22.641	10.721	47.71	0.39	6.515	4.161	-344.13		-0.85	0.000
508.17	22.677	11.310	47.67	0.39	6.521	4.166	-328.84		-0.85	0.000
508.44	22.735	11.863	47.62	0.39	6.535	4.174	-304.70		-0.85	0.000
508.72	22.798	12.380	47.55	0.39	6.549	4.179	-307.85		-0.85	0.000
508.99	22.859	12.873	47.49	0.39	6.562	4.186	-299.10		-0.85	0.000
509.26	22.904	13.329	47.45	0.39	6.578	4.193	-290.34		-0.85	0.000
509.54	22.970	13.762	47.38	0.39	6.595	4.197	-250.92		-0.85	0.000
509.81	23.041	14.135	47.31	0.39	6.615	4.207	-220.03		-0.85	0.000
510.08	23.089	14.495	47.26	0.39	6.632	4.216	-137.02		-0.85	0.000
510.36	23.162	14.796	47.19	0.39	6.654	4.226	-92.17		-0.85	0.000
510.63	23.236	15.072	47.11	0.39	6.673	4.235	-17.22		-0.85	0.000
510.89	23.312	15.300	47.04	0.38	6.681	4.243	3.78		-0.85	0.000
511.16	23.364	15.493	46.99	0.38	6.706	4.253	16.71		-0.85	0.000
511.43	23.441	15.637	46.91	0.38	6.736	4.262	23.52		-0.85	0.000
511.69	23.520	15.745	46.83	0.38	6.789	4.274	72.06		-0.85	0.000
511.97	23.572	15.817	46.78	0.38	6.829	4.279	99.62		-0.85	0.000
512.24	23.652	15.841	46.70	0.38	6.890	4.305	137.16		-0.85	0.000
512.50	23.731	15.829	46.62	0.38	6.945	4.327	123.32		-0.85	0.000
512.78	23.784	15.781	46.57	0.38	6.976	4.355	57.89		-0.85	0.000
513.05	23.862	15.685	46.49	0.38	7.036	4.383	25.77		-0.85	0.000
513.31	23.941	15.541	46.41	0.38	7.097	4.418	-4.50		-0.85	0.000
513.58	23.993	15.373	46.36	0.38	7.168	4.453	-3.50		-0.85	0.000
513.85	24.070	15.156	46.28	0.38	7.251	4.494	1.39		-0.85	0.000
514.11	24.143	14.904	46.21	0.38	7.334	4.520	-19.63		-0.85	0.000
514.39	24.193	14.615	46.16	0.38	7.440	4.570	-108.43		-0.85	0.000
514.66	24.266	14.291	46.08	0.38	7.481	4.636	-168.02		-0.85	0.000
514.93	24.335	13.918	46.02	0.38	7.591	4.711	-295.61		-0.85	0.000
515.21	24.380	13.522	45.97	0.38	7.718	4.795	-339.65		-0.85	0.000
515.49	24.448	13.077	45.90	0.38	7.846	4.890	-383.85		-0.85	0.000
515.76	24.512	12.584	45.84	0.37	7.962	4.997	-399.40		-0.85	0.000
516.04	24.573	12.067	45.78	0.37	8.093	5.108	-450.13		-0.85	0.000
516.30	24.612	11.526	45.74	0.37	8.220	5.221	-482.99		-0.85	0.000
516.58	24.668	10.937	45.68	0.37	8.350	5.281	-556.96		-0.85	0.000
516.85	24.721	10.349	45.63	0.37	8.460	5.402	-583.02		-0.85	0.000
517.13	24.771	9.712	45.58	0.37	8.585	5.518	-584.98		-0.85	0.000
517.40	24.803	9.062	45.55	0.37	8.634	5.637	-559.73		-0.85	0.000
517.67	24.846	8.365	45.50	0.37	8.740	5.751	-471.55		-0.85	0.000
517.95	24.886	7.656	45.46	0.37	8.856	5.862	-421.90		-0.85	0.000
518.22	24.912	6.947	45.44	0.37	8.945	5.969	-354.48		-0.85	0.000
518.49	24.943	6.190	45.41	0.37	9.028	6.065	-332.06		-0.85	0.000
518.77	24.972	5.433	45.38	0.37	9.101	6.153	-299.22		-0.85	0.000
519.04	24.994	4.663	45.36	0.37	9.158	6.233	-294.34		-0.85	0.000
519.31	25.005	3.870	45.34	0.37	9.211	6.301	-303.89		-0.85	0.000
519.58	25.026	3.089	45.32	0.37	9.229	6.330	-311.47		-0.85	0.000
519.86	25.037	2.272	45.31	0.37	9.278	6.384	-307.24		-0.85	0.000
520.12	25.045	1.478	45.30	0.37	9.292	6.430	-303.75		-0.85	0.000
520.40	25.048	0.661	45.30	0.37	9.316	6.461	-298.13		-0.85	0.000
520.66	25.049	-0.120	45.30	0.37	9.322	6.485	-296.09		-0.85	0.000
520.94	25.049	-0.950	45.30	0.37	9.319	6.497	-276.42		-0.85	0.000
521.21	25.049	-1.743	45.30	0.37	9.324	6.502	-252.72		-0.85	0.000
521.48	25.049	-2.548	45.30	0.37	9.321	6.501	-181.83		-0.85	0.000
521.74	25.034	-3.341	45.32	0.37	9.318	6.499	-156.84		-0.85	0.000
522.02	25.022	-4.123	45.33	0.37	9.313	6.498	-124.74		-0.85	0.000
522.29	24.999	-4.892	45.35	0.37	9.308	6.495	-113.03		-0.85	0.000
522.57	24.971	-5.661	45.38	0.37	9.304	6.494	-108.08		-0.85	0.000
522.84	24.952	-6.418	45.40	0.37	9.267	6.485	-116.24		-0.85	0.000
523.12	24.916	-7.163	45.43	0.37	9.239	6.466	-157.32		-0.85	0.000
523.40	24.877	-7.873	45.47	0.37	9.225	6.434	-239.41		-0.85	0.000
523.67	24.836	-8.594	45.51	0.37	9.223	6.410	-288.96		-0.85	0.000
523.95	24.805	-9.267	45.54	0.37	9.203	6.391	-351.98		-0.85	0.000
524.22	24.758	-9.928	45.59	0.37	9.167	6.372	-364.13		-0.85	0.000
524.50	24.707	-10.553	45.64	0.37	9.090	6.342	-342.18		-0.85	0.000
524.76	24.653	-11.154	45.70	0.37	9.037	6.279	-312.00		-0.85	0.000
525.05	24.614	-11.731	45.74	0.37	8.955	6.242	-266.47		-0.85	0.000
525.32	24.554	-12.236	45.80	0.37	8.852	6.146	-239.83		-0.85	0.000
525.59	24.493	-12.764	45.86	0.37	8.734	6.037	-188.36		-0.85	0.000
525.87	24.426	-13.233	45.92	0.38	8.606	5.918	-163.32		-0.85	0.000
526.14	24.381	-13.666	45.97	0.38	8.494	5.800	-117.41		-0.85	0.000
526.42	24.313	-14.063	46.04	0.38	8.374	5.676	-99.87		-0.85	0.000
526.70	24.241	-14.423	46.11	0.38	8.258	5.555	-56.03		-0.85	0.000
526.97	24.194	-14.736	46.16	0.38	8.144	5.435	-50.56		-0.85	0.000
527.24	24.120	-15.024	46.23	0.38	8.042	5.319	-87.01		-0.85	0.000
527.52	24.043	-15.264	46.31	0.38	7.983	5.214	-118.50		-0.85	0.000
527.79	23.966	-15.457	46.38	0.38	7.885	5.113	-173.91		-0.85	0.000
528.06	23.913	-15.625	46.44	0.38	7.794	5.067	-183.98		-0.85	0.000
528.34	23.836	-15.733	46.51	0.38	7.710	4.979	-188.82		-0.85	0.000
528.61	23.758	-15.805	46.59	0.38	7.603	4.903	-197.30		-0.85	0.000
528.89	23.677	-15.841	46.67	0.38	7.451	4.831	-209.85		-0.85	0.000
529.16	23.626	-15.829	46.72	0.38	7.341	4.742	-205.14		-0.85	0.000
529.44	23.545	-15.781	46.80	0.38	7.214	4.653	-182.62		-0.85	0.000
529.71	23.467	-15.685	46.88	0.38	7.119	4.569	-171.72		-0.85	0.000
529.99	23.389	-15.553	46.96	0.38	7.022	4.491	-133.22		-0.85	0.000
530.27	23.339	-15.373	47.01	0.38	6.987	4.426	-74.11		-0.85	0.000
530.54	23.261	-15.156	47.09	0.38	6.903	4.367	-36.91		-0.85	0.000
530.82	23.185	-14.880	47.17	0.39	6.832	4.315	18.41		-0.85	0.000
531.09	23.113	-14.591	47.24	0.39	6.768	4.269	35.00		-0.85	0.000
531.36	23.063	-14.243	47.29	0.39	6.710	4.253	54.94		-0.85	0.000
531.63	22.995	-13.858	47.35	0.39	6.671	4.220	60.85		-0.85	0.000
531.90	22.926	-13.462	47.42	0.39	6.626	4.194	36.81		-0.85	0.000
532.17	22.882	-13.017	47.47	0.39	6.587	4.171	19.17		-0.85	0.000
532.44	22.817	-12.536	47.53	0.39	6.561	4.152	-36.19		-0.85	0.000
532.72	22.757	-12.031	47.59	0.39	6.552	4.139	-78.29		-0.85	0.000
532.99	22.718	-11.490	47.63	0.39	6.527	4.131	-178.90		-0.85	0.000
533.27	22.662	-10.901	47.69	0.39	6.511	4.122	-222.41		-0.85	0.000
533.54	22.608	-10.300	47.74	0.39	6.480	4.113	-271.61		-0.85	0.000
533.81	22.558	-9.663	47.79	0.39	6.459	4.107	-286.20		-0.85	0.000
534.09	22.529	-8.990	47.82	0.39	6.456	4.103	-332.67		-0.85	0.000
534.36	22.485	-8.317	47.87	0.39	6.440	4.098	-354.92		-0.85	0.000
534.64	22.447	-7.608	47.90	0.39	6.428	4.095	-380.14		-0.85	0.000
534.91	22.409	-6.887	47.94	0.39	6.420	4.093	-379.39		-0.85	0.000
535.18	22.389	-6.130	47.96	0.39	6.417	4.090	-373.27		-0.85	0.000
535.46	22.359	-5.361	47.99	0.39	6.407	4.087	-367.86		-0.85	0.000
535.73	22.335	-4.591	48.01	0.39	6.409	4.086	-343.97		-0.85	0.000
536.01	22.325	-3.798	48.03	0.39	6.400	4.085	-329.45		-0.85	0.000
536.28	22.311	-3.017	48.04	0.39	6.401	4.086	-339.15		-0.85	0.000
536.55	22.298	-2.200	48.05	0.39	6.398	4.087	-353.60		-0.85	0.000
536.83	22.288	-1.370	48.06	0.39	6.410	4.089	-367.15		-0.85	0.000
537.10	22.285	-0.565	48.06	0.39	6.409	4.090	-347.78		-0.85	0.000
537.37	22.282	0.252	48.07	0.39	6.401	4.094	-292.08		-0.85	0.000
537.64	22.282	1.046	48.07	0.39	6.409	4.096	-266.06		-0.85	0.000
537.91	22.282	1.863	48.07	0.39	6.415	4.099	-218.43		-0.85	0.000
538.18	22.282	2.644	48.07	0.39	6.414	4.102	-195.62		-0.85	0.000
538.46	22.298	3.450	48.05	0.39	6.416	4.105	-166.21		-0.85	0.000
538.72	22.321	4.219	48.03	0.39	6.415	4.107	-159.12		-0.85	0.000
539.00	22.336	5.024	48.01	0.39	6.413	4.107	-127.61		-0.85	0.000
539.28	22.363	5.769	47.99	0.39	6.416	4.108	-108.23		-0.85	0.000
539.55	22.397	6.526	47.95	0.39	6.424	4.109	-65.34		-0.85	0.000
539.82	22.420	7.272	47.93	0.39	6.422	4.111	-49.64		-0.85	0.000
540.09	22.457	7.981	47.89	0.39	6.426	4.112	-44.77		-0.85	0.000
540.36	22.499	8.678	47.85	0.39	6.425	4.113	-54.41		-0.85	0.000
540.64	22.547	9.339	47.80	0.39	6.438	4.115	-91.02		-0.85	0.000
540.91	22.577	9.976	47.77	0.39	6.438	4.119	-104.56		-0.85	0.000
541.18	22.629	10.613	47.72	0.39	6.444	4.121	-119.87		-0.85	0.000
541.46	22.682	11.202	47.67	0.39	6.458	4.123	-132.16		-0.85	0.000
541.73	22.721	11.755	47.63	0.39	6.469	4.129	-169.45		-0.85	0.000
542.01	22.781	12.284	47.57	0.39	6.487	4.135	-202.81		-0.85	0.000
542.28	22.844	12.788	47.51	0.39	6.498	4.138	-276.13		-0.85	0.000
542.55	22.909	13.257	47.44	0.39	6.505	4.146	-307.10		-0.85	0.000
542.83	22.954	13.690	47.40	0.39	6.524	4.154	-352.31		-0.85	0.000
543.09	23.022	14.075	47.33	0.39	6.536	4.161	-353.15		-0.85	0.000
543.37	23.095	14.435	47.25	0.39	6.557	4.168	-340.93		-0.85	0.000
543.64	23.143	14.748	47.21	0.39	6.572	4.176	-336.61		-0.85	0.000
543.92	23.217	15.036	47.13	0.39	6.591	4.186	-368.20		-0.85	0.000
544.19	23.294	15.264	47.06	0.38	6.618	4.195	-394.81		-0.85	0.000
544.47	23.370	15.469	46.98	0.38	6.643	4.205	-393.34		-0.85	0.000
544.73	23.422	15.625	46.93	0.38	6.665	4.212	-352.34		-0.85	0.000
545.01	23.500	15.733	46.85	0.38	6.698	4.216	-322.14		-0.85	0.000
545.28	23.580	15.805	46.77	0.38	6.739	4.230	-264.03		-0.85	0.000
545.55	23.632	15.841	46.72	0.38	6.788	4.250	-239.32		-0.85	0.000
545.83	23.712	15.829	46.64	0.38	6.851	4.272	-225.89		-0.85	0.000
546.10	23.789	15.781	46.56	0.38	6.902	4.298	-231.99		-0.85	0.000
546.37	23.868	15.685	46.48	0.38	6.966	4.325	-237.63		-0.85	0.000
546.65	23.921	15.553	46.43	0.38	7.021	4.356	-231.68		-0.85	0.000
546.92	23.999	15.373	46.35	0.38	7.098	4.390	-204.62		-0.85	0.000
547.19	24.075	15.156	46.28	0.38	7.177	4.428	-189.77		-0.85	0.000
547.47	24.126	14.904	46.22	0.38	7.215	4.473	-151.77		-0.85	0.000
547.74	24.199	14.603	46.15	0.38	7.311	4.498	-148.65		-0.85	0.000
548.02	24.271	14.267	46.08	0.38	7.402	4.559	-171.48		-0.85	0.000
548.29	24.340	13.894	46.01	0.38	7.510	4.630	-197.53		-0.85	0.000
548.56	24.387	13.474	45.96	0.38	7.630	4.710	-245.37		-0.85	0.000
548.84	24.453	13.029	45.90	0.38	7.748	4.802	-264.42		-0.85	0.000
549.11	24.517	12.548	45.83	0.37	7.873	4.905	-259.24		-0.85	0.000
549.39	24.579	12.031	45.77	0.37	7.997	5.009	-245.30		-0.85	0.000
549.66	24.616	11.490	45.73	0.37	8.111	5.123	-193.47		-0.85	0.000
549.92	24.673	10.901	45.68	0.37	8.242	5.238	-167.99		-0.85	0.000
550.20	24.726	10.300	45.62	0.37	8.298	5.352	-162.76		-0.85	0.000
550.48	24.759	9.675	45.59	0.37	8.410	5.412	-181.70		-0.85	0.000
550.75	24.805	9.014	45.54	0.37	8.533	5.527	-208.91		-0.85	0.000
551.02	24.850	8.317	45.50	0.37	8.631	5.641	-207.68		-0.85	0.000
551.29	24.890	7.632	45.46	0.37	8.726	5.748	-179.60		-0.85	0.000
551.56	24.912	6.899	45.44	0.37	8.824	5.854	-177.49		-0.85	0.000
551.84	24.945	6.166	45.40	0.37	8.912	5.950	-179.92		-0.85	0.000
552.11	24.972	5.409	45.38	0.37	8.975	6.039	-197.46		-0.85	0.000
552.38	24.990	4.627	45.36	0.37	9.034	6.115	-243.43		-0.85	0.000
552.65	25.011	3.846	45.34	0.37	9.063	6.185	-266.03		-0.85	0.000
552.93	25.021	3.053	45.33	0.37	9.114	6.244	-288.52		-0.85	0.000
553.20	25.032	2.248	45.32	0.37	9.136	6.271	-282.52		-0.85	0.000
553.47	25.043	1.442	45.31	0.37	9.169	6.309	-240.92		-0.85	0.000
553.73	25.046	0.637	45.30	0.37	9.173	6.345	-225.72		-0.85	0.000
554.01	25.048	-0.156	45.30	0.37	9.191	6.366	-212.80		-0.85	0.000
554.27	25.048	-0.950	45.30	0.37	9.180	6.377	-212.40		-0.85	0.000
554.54	25.048	-1.767	45.30	0.37	9.183	6.382	-174.68		-0.85	0.000
554.81	25.048	-2.548	45.30	0.37	9.182	6.382	-148.38		-0.85	0.000
555.09	25.037	-3.341	45.31	0.37	9.179	6.380	-120.06		-0.85	0.000
555.36	25.018	-4.111	45.33	0.37	9.174	6.378	-127.20		-0.85	0.000
555.64	24.995	-4.916	45.35	0.37	9.167	6.377	-153.77		-0.85	0.000
555.91	24.967	-5.697	45.38	0.37	9.155	6.375	-163.79		-0.85	0.000
556.19	24.948	-6.454	45.40	0.37	9.110	6.372	-182.39		-0.85	0.000
556.46	24.912	-7.188	45.44	0.37	9.105	6.349	-188.95		-0.85	0.000
556.74	24.873	-7.921	45.48	0.37	9.091	6.317	-192.27		-0.85	0.000
557.02	24.846	-8.618	45.50	0.37	9.079	6.290	-189.03		-0.85	0.000
557.29	24.802	-9.303	45.55	0.37	9.054	6.275	-172.60		-0.85	0.000
557.56	24.754	-9.952	45.60	0.37	9.050	6.253	-163.96		-0.85	0.000
557.84	24.703	-10.589	45.65	0.37	8.974	6.229	-131.24		-0.85	0.000
558.12	24.666	-11.166	45.68	0.37	8.894	6.165	-68.43		-0.85	0.000
558.39	24.609	-11.731	45.74	0.37	8.805	6.084	-43.62		-0.85	0.000
558.67	24.548	-12.284	45.80	0.37	8.688	5.985	-22.52		-0.85	0.000
558.94	24.486	-12.788	45.86	0.37	8.575	5.928	-27.86		-0.85	0.000
559.22	24.443	-13.245	45.91	0.38	8.461	5.811	-56.82		-0.85	0.000
559.49	24.376	-13.678	45.97	0.38	8.343	5.693	-70.31		-0.85	0.000
559.76	24.307	-14.075	46.04	0.38	8.232	5.571	-113.13		-0.85	0.000
560.04	24.235	-14.423	46.12	0.38	8.111	5.449	-144.72		-0.85	0.000
560.31	24.186	-14.748	46.16	0.38	8.052	5.336	-222.39		-0.85	0.000
560.58	24.112	-15.036	46.24	0.38	7.957	5.220	-266.76		-0.85	0.000
560.86	24.036	-15.264	46.31	0.38	7.851	5.117	-334.76		-0.85	0.000
561.13	23.986	-15.469	46.36	0.38	7.760	5.022	-354.65		-0.85	0.000
561.41	23.908	-15.625	46.44	0.38	7.665	4.932	-374.64		-0.85	0.000
561.68	23.829	-15.745	46.52	0.38	7.591	4.891	-382.12		-0.85	0.000
561.95	23.749	-15.817	46.60	0.38	7.485	4.816	-389.85		-0.85	0.000
562.22	23.698	-15.841	46.65	0.38	7.342	4.748	-394.22		-0.85	0.000
562.50	23.617	-15.829	46.73	0.38	7.228	4.670	-371.48		-0.85	0.000
562.78	23.539	-15.781	46.81	0.38	7.167	4.584	-343.78		-0.85	0.000
563.05	23.461	-15.685	46.89	0.38	7.056	4.505	-264.62		-0.85	0.000
563.32	23.409	-15.541	46.94	0.38	6.964	4.425	-220.95		-0.85	0.000
563.61	23.332	-15.373	47.02	0.38	6.884	4.364	-144.24		-0.85	0.000
563.88	23.254	-15.144	47.10	0.39	6.801	4.310	-108.77		-0.85	0.000
564.16	23.180	-14.880	47.17	0.39	6.731	4.256	-45.61		-0.85	0.000
564.43	23.131	-14.579	47.22	0.39	6.676	4.217	-8.70		-0.85	0.000
564.70	23.059	-14.231	47.29	0.39	6.623	4.184	54.02		-0.85	0.000
564.97	22.989	-13.858	47.36	0.39	6.592	4.169	76.36		-0.85	0.000
565.25	22.943	-13.450	47.41	0.39	6.540	4.143	120.42		-0.85	0.000
565.52	22.876	-13.005	47.47	0.39	6.523	4.123	131.60		-0.85	0.000
565.79	22.813	-12.512	47.54	0.39	6.498	4.106	121.92		-0.85	0.000
566.06	22.750	-12.007	47.60	0.39	6.461	4.095	105.08		-0.85	0.000
566.34	22.712	-11.466	47.64	0.39	6.446	4.083	49.01		-0.85	0.000
566.61	22.657	-10.877	47.69	0.39	6.420	4.074	23.69		-0.85	0.000
566.88	22.603	-10.264	47.75	0.39	6.403	4.066	-13.65		-0.85	0.000
567.15	22.571	-9.639	47.78	0.39	6.389	4.062	-26.25		-0.85	0.000
567.42	22.523	-8.990	47.83	0.39	6.375	4.061	-37.48		-0.85	0.000
567.69	22.482	-8.317	47.87	0.39	6.360	4.056	-35.42		-0.85	0.000
567.96	22.454	-7.608	47.90	0.39	6.360	4.053	-18.63		-0.85	0.000
568.23	22.418	-6.899	47.93	0.39	6.348	4.051	-14.93		-0.85	0.000
568.51	22.386	-6.142	47.96	0.39	6.335	4.049	-26.99		-0.85	0.000
568.78	22.358	-5.397	47.99	0.39	6.331	4.047	-29.11		-0.85	0.000
569.05	22.343	-4.615	48.01	0.39	6.327	4.046	-19.31		-0.85	0.000
569.33	22.325	-3.846	48.03	0.39	6.327	4.046	10.45		-0.85	0.000
569.59	22.306	-3.041	48.04	0.39	6.325	4.046	20.57		-0.85	0.000
569.86	22.298	-2.236	48.05	0.39	6.320	4.047	21.89		-0.85	0.000
570.12	22.291	-1.454	48.06	0.39	6.323	4.049	26.26		-0.85	0.000
570.38	22.286	-0.661	48.06	0.39	6.326	4.053	27.39		-0.85	0.000
570.65	22.284	0.132	48.07	0.39	6.330	4.056	49.60		-0.85	0.000
570.91	22.284	0.901	48.07	0.39	6.331	4.058	65.40		-0.85	0.000
571.18	22.284	1.707	48.07	0.39	6.335	4.062	58.29		-0.85	0.000
571.44	22.284	2.476	48.07	0.39	6.343	4.066	39.01		-0.85	0.000
571.71	22.298	3.257	48.05	0.39	6.341	4.067	-18.45		-0.85	0.000
571.98	22.308	4.026	48.04	0.39	6.345	4.069	-54.02		-0.85	0.000
572.25	22.334	4.796	48.02	0.39	6.338	4.070	-127.05		-0.85	0.000
572.53	22.361	5.553	47.99	0.39	6.343	4.070	-158.79		-0.85	0.000
572.80	22.389	6.310	47.96	0.39	6.350	4.071	-201.30		-0.85	0.000
573.07	22.411	7.055	47.94	0.39	6.350	4.073	-217.90		-0.85	0.000
573.35	22.449	7.764	47.90	0.39	6.350	4.074	-276.95		-0.85	0.000
573.62	22.491	8.474	47.86	0.39	6.352	4.075	-313.88		-0.85	0.000
573.90	22.518	9.147	47.83	0.39	6.364	4.078	-375.12		-0.85	0.000
574.17	22.566	9.808	47.78	0.39	6.354	4.078	-380.70		-0.85	0.000
574.44	22.616	10.433	47.73	0.39	6.361	4.083	-363.11		-0.85	0.000
574.72	22.670	11.034	47.68	0.39	6.383	4.084	-352.80		-0.85	0.000
574.99	22.708	11.599	47.64	0.39	6.387	4.089	-325.47		-0.85	0.000
575.26	22.767	12.151	47.58	0.39	6.407	4.097	-312.68		-0.85	0.000
575.53	22.829	12.656	47.52	0.39	6.418	4.102	-300.84		-0.85	0.000
575.80	22.872	13.137	47.48	0.39	6.436	4.109	-301.78		-0.85	0.000
576.08	22.938	13.570	47.41	0.39	6.446	4.117	-301.19		-0.85	0.000
576.35	23.008	13.966	47.34	0.39	6.467	4.125	-287.35		-0.85	0.000
576.63	23.077	14.339	47.27	0.39	6.477	4.133	-249.85		-0.85	0.000
576.90	23.126	14.663	47.22	0.39	6.485	4.137	-229.27		-0.85	0.000
577.17	23.200	14.952	47.15	0.39	6.512	4.145	-183.13		-0.85	0.000
577.44	23.276	15.204	47.07	0.38	6.528	4.154	-150.67		-0.85	0.000
577.71	23.326	15.409	47.02	0.38	6.557	4.162	-60.58		-0.85	0.000
577.98	23.404	15.577	46.95	0.38	6.576	4.172	-19.25		-0.85	0.000
578.27	23.484	15.709	46.87	0.38	6.624	4.179	72.24		-0.85	0.000
578.53	23.561	15.793	46.79	0.38	6.663	4.192	113.26		-0.85	0.000
578.80	23.614	15.841	46.74	0.38	6.688	4.212	185.91		-0.85	0.000
579.07	23.693	15.841	46.66	0.38	6.743	4.234	220.34		-0.85	0.000
579.35	23.772	15.805	46.58	0.38	6.803	4.244	259.35		-0.85	0.000
579.61	23.826	15.721	46.52	0.38	6.862	4.269	261.98		-0.85	0.000
579.89	23.903	15.601	46.45	0.38	6.919	4.295	264.13		-0.85	0.000
580.16	23.981	15.445	46.37	0.38	6.982	4.324	264.53		-0.85	0.000
580.43	24.032	15.240	46.32	0.38	7.060	4.358	254.12		-0.85	0.000
580.70	24.108	15.000	46.24	0.38	7.135	4.397	246.23		-0.85	0.000
580.97	24.182	14.712	46.17	0.38	7.179	4.441	213.09		-0.85	0.000
581.24	24.254	14.399	46.10	0.38	7.279	4.498	192.60		-0.85	0.000
581.51	24.302	14.038	46.05	0.38	7.365	4.567	122.64		-0.85	0.000
581.78	24.371	13.642	45.98	0.38	7.490	4.604	86.74		-0.85	0.000
582.05	24.439	13.209	45.91	0.38	7.600	4.687	25.29		-0.85	0.000
582.32	24.481	12.752	45.87	0.38	7.717	4.781	23.65		-0.85	0.000
582.59	24.544	12.260	45.81	0.37	7.844	4.881	57.15		-0.85	0.000
582.86	24.605	11.743	45.74	0.37	7.968	4.987	74.66		-0.85	0.000
583.13	24.643	11.178	45.71	0.37	8.027	5.100	100.92		-0.85	0.000
583.40	24.696	10.589	45.65	0.37	8.140	5.212	106.39		-0.85	0.000
583.69	24.746	9.976	45.60	0.37	8.260	5.328	103.24		-0.85	0.000
583.95	24.796	9.339	45.55	0.37	8.364	5.441	102.70		-0.85	0.000
584.23	24.826	8.642	45.52	0.37	8.481	5.494	107.80		-0.85	0.000
584.49	24.867	7.969	45.48	0.37	8.579	5.607	121.86		-0.85	0.000
584.76	24.904	7.236	45.45	0.37	8.666	5.711	160.83		-0.85	0.000
585.03	24.928	6.526	45.42	0.37	8.756	5.811	177.27		-0.85	0.000
585.30	24.959	5.781	45.39	0.37	8.796	5.903	172.28		-0.85	0.000
585.57	24.984	5.024	45.37	0.37	8.855	5.988	145.31		-0.85	0.000
585.84	24.995	4.255	45.35	0.37	8.921	6.059	55.29		-0.85	0.000
586.10	25.018	3.474	45.33	0.37	8.961	6.122	7.97		-0.85	0.000
586.38	25.030	2.680	45.32	0.37	9.001	6.149	-78.82		-0.85	0.000
586.64	25.037	1.911	45.31	0.37	9.026	6.197	-115.18		-0.85	0.000
586.91	25.045	1.094	45.30	0.37	9.055	6.233	-179.30		-0.85	0.000
587.18	25.048	0.300	45.30	0.37	9.048	6.265	-198.72		-0.85	0.000
587.45	25.048	-0.493	45.30	0.37	9.054	6.279	-224.81		-0.85	0.000
587.72	25.048	-1.286	45.30	0.37	9.057	6.286	-231.23		-0.85	0.000
587.99	25.048	-2.091	45.30	0.37	9.047	6.288	-232.17		-0.85	0.000
588.26	25.048	-2.897	45.30	0.37	9.054	6.286	-210.69		-0.85	0.000
588.53	25.031	-3.666	45.32	0.37	9.049	6.284	-135.93		-0.85	0.000
588.80	25.007	-4.447	45.34	0.37	9.047	6.281	-105.87		-0.85	0.000
589.07	24.981	-5.216	45.37	0.37	9.034	6.279	-72.31		-0.85	0.000
589.35	24.963	-5.962	45.39	0.37	9.021	6.275	-67.09		-0.85	0.000
589.62	24.930	-6.719	45.42	0.37	8.988	6.266	-41.32		-0.85	0.000
589.89	24.895	-7.464	45.45	0.37	8.968	6.231	-22.31		-0.85	0.000
590.17	24.870	-8.173	45.48	0.37	8.954	6.203	-0.50		-0.85	0.000
590.44	24.826	-8.858	45.52	0.37	8.945	6.179	-10.19		-0.85	0.000
590.72	24.780	-9.531	45.57	0.37	8.920	6.161	-72.38		-0.85	0.000
590.99	24.728	-10.156	45.62	0.37	8.870	6.139	-115.65		-0.85	0.000
591.26	24.696	-10.781	45.65	0.37	8.797	6.123	-203.56		-0.85	0.000
591.54	24.639	-11.370	45.71	0.37	8.706	6.062	-238.23		-0.85	0.000
591.82	24.582	-11.923	45.77	0.37	8.595	5.983	-227.43		-0.85	0.000
592.09	24.521	-12.440	45.83	0.37	8.553	5.882	-195.41		-0.85	0.000
592.37	24.479	-12.945	45.87	0.38	8.440	5.771	-122.05		-0.85	0.000
592.64	24.412	-13.401	45.94	0.38	8.323	5.655	-93.10		-0.85	0.000
592.92	24.345	-13.822	46.00	0.38	8.206	5.537	-61.06		-0.85	0.000
593.19	24.298	-14.195	46.05	0.38	8.086	5.419	-56.75		-0.85	0.000
593.46	24.226	-14.543	46.12	0.38	7.978	5.304	-31.77		-0.85	0.000
593.73	24.152	-14.844	46.20	0.38	7.868	5.188	-6.89		-0.85	0.000
594.01	24.077	-15.108	46.27	0.38	7.777	5.082	66.79		-0.85	0.000
594.28	24.027	-15.337	46.32	0.38	7.682	5.032	99.60		-0.85	0.000
594.56	23.949	-15.517	46.40	0.38	7.592	4.938	140.58		-0.85	0.000
594.83	23.871	-15.661	46.48	0.38	7.549	4.853	146.69		-0.85	0.000
595.10	23.818	-15.769	46.53	0.38	7.471	4.775	154.02		-0.85	0.000
595.37	23.740	-15.829	46.61	0.38	7.365	4.708	158.37		-0.85	0.000
595.64	23.662	-15.841	46.69	0.38	7.227	4.643	140.97		-0.85	0.000
595.91	23.581	-15.817	46.77	0.38	7.118	4.559	131.63		-0.85	0.000
596.18	23.530	-15.757	46.82	0.38	6.999	4.482	148.10		-0.85	0.000
596.45	23.452	-15.649	46.90	0.38	6.913	4.407	168.60		-0.85	0.000
596.73	23.372	-15.505	46.98	0.38	6.827	4.340	195.70		-0.85	0.000
597.00	23.321	-15.312	47.03	0.38	6.747	4.311	194.95		-0.85	0.000
597.29	23.245	-15.084	47.10	0.39	6.710	4.257	177.13		-0.85	0.000
597.55	23.170	-14.820	47.18	0.39	6.646	4.207	112.61		-0.85	0.000
597.83	23.098	-14.495	47.25	0.39	6.594	4.171	61.96		-0.85	0.000
598.11	23.050	-14.147	47.30	0.39	6.541	4.136	-54.46		-0.85	0.000
598.38	22.980	-13.762	47.37	0.39	6.507	4.113	-93.18		-0.85	0.000
598.65	22.913	-13.329	47.44	0.39	6.463	4.094	-126.28		-0.85	0.000
598.93	22.847	-12.885	47.50	0.39	6.438	4.077	-133.36		-0.85	0.000
599.21	22.804	-12.392	47.55	0.39	6.402	4.064	-161.34		-0.85	0.000
599.49	22.744	-11.851	47.61	0.39	6.387	4.052	-178.52		-0.85	0.000
599.76	22.686	-11.286	47.66	0.39	6.361	4.047	-224.91		-0.85	0.000
600.04	22.632	-10.685	47.72	0.39	6.351	4.043	-241.13		-0.85	0.000
600.31	22.597	-10.072	47.75	0.39	6.338	4.035	-251.22		-0.85	0.000
600.59	22.549	-9.411	47.80	0.39	6.318	4.030	-245.55		-0.85	0.000
600.86	22.504	-8.750	47.85	0.39	6.310	4.027	-221.72		-0.85	0.000
601.13	22.461	-8.041	47.89	0.39	6.296	4.024	-213.33		-0.85	0.000
601.41	22.435	-7.332	47.91	0.39	6.280	4.022	-230.03		-0.85	0.000
601.68	22.403	-6.599	47.95	0.39	6.279	4.019	-252.47		-0.85	0.000
601.96	22.372	-5.841	47.98	0.39	6.261	4.016	-289.80		-0.85	0.000
602.23	22.344	-5.072	48.01	0.39	6.264	4.014	-302.29		-0.85	0.000
602.51	22.329	-4.279	48.02	0.39	6.256	4.014	-317.95		-0.85	0.000
602.78	22.312	-3.498	48.04	0.39	6.257	4.016	-322.58		-0.85	0.000
603.06	22.295	-2.680	48.05	0.39	6.261	4.017	-326.67		-0.85	0.000
603.33	22.291	-1.863	48.06	0.39	6.254	4.019	-328.09		-0.85	0.000
603.61	22.284	-1.058	48.07	0.39	6.254	4.019	-316.09		-0.85	0.000
603.88	22.282	-0.228	48.07	0.39	6.260	4.022	-289.13		-0.85	0.000
604.15	22.280	0.577	48.07	0.39	6.268	4.026	-260.42		-0.85	0.000
604.42	22.280	1.382	48.07	0.39	6.269	4.028	-189.95		-0.85	0.000
604.69	22.280	2.187	48.07	0.39	6.274	4.030	-158.39		-0.85	0.000
604.95	22.290	2.969	48.06	0.39	6.273	4.033	-130.15		-0.85	0.000
605.23	22.299	3.762	48.05	0.39	6.274	4.035	-110.03		-0.85	0.000
605.50	22.323	4.531	48.03	0.39	6.277	4.037	-114.43		-0.85	0.000
605.77	22.348	5.313	48.00	0.39	6.273	4.038	-104.22		-0.85	0.000
606.04	22.366	6.070	47.98	0.39	6.283	4.039	-88.69		-0.85	0.000
606.31	22.400	6.803	47.95	0.39	6.279	4.040	-87.64		-0.85	0.000
606.59	22.436	7.524	47.91	0.39	6.279	4.042	-101.21		-0.85	0.000
606.87	22.476	8.233	47.87	0.39	6.282	4.043	-120.67		-0.85	0.000
607.14	22.504	8.942	47.85	0.39	6.295	4.044	-161.43		-0.85	0.000
607.42	22.552	9.615	47.80	0.39	6.294	4.046	-186.74		-0.85	0.000
607.69	22.600	10.240	47.75	0.39	6.296	4.050	-232.25		-0.85	0.000
607.97	22.653	10.865	47.70	0.39	6.315	4.053	-251.78		-0.85	0.000
608.24	22.690	11.442	47.66	0.39	6.316	4.059	-286.20		-0.85	0.000
608.51	22.749	11.995	47.60	0.39	6.336	4.065	-303.56		-0.85	0.000
608.78	22.811	12.500	47.54	0.39	6.351	4.068	-346.49		-0.85	0.000
609.06	22.853	12.993	47.50	0.39	6.355	4.072	-353.14		-0.85	0.000
609.33	22.920	13.438	47.43	0.39	6.379	4.081	-342.17		-0.85	0.000
609.61	22.988	13.858	47.36	0.39	6.390	4.086	-318.57		-0.85	0.000
609.89	23.059	14.231	47.29	0.39	6.418	4.096	-248.19		-0.85	0.000
610.16	23.105	14.579	47.24	0.39	6.427	4.103	-217.03		-0.85	0.000
610.43	23.180	14.880	47.17	0.39	6.434	4.111	-159.07		-0.85	0.000
610.71	23.254	15.144	47.10	0.39	6.459	4.117	-140.57		-0.85	0.000
610.98	23.304	15.361	47.05	0.38	6.479	4.124	-78.70		-0.85	0.000
611.24	23.381	15.541	46.97	0.38	6.504	4.134	-41.53		-0.85	0.000
611.52	23.461	15.673	46.89	0.38	6.527	4.137	43.97		-0.85	0.000
611.78	23.539	15.769	46.81	0.38	6.580	4.145	89.81		-0.85	0.000
612.06	23.591	15.829	46.76	0.38	6.628	4.161	168.69		-0.85	0.000
612.33	23.671	15.841	46.68	0.38	6.688	4.179	204.15		-0.85	0.000
612.60	23.750	15.817	46.60	0.38	6.712	4.201	252.89		-0.85	0.000
612.87	23.802	15.745	46.55	0.38	6.761	4.223	272.66		-0.85	0.000
613.14	23.880	15.637	46.47	0.38	6.824	4.248	264.48		-0.85	0.000
613.41	23.958	15.493	46.39	0.38	6.876	4.274	244.00		-0.85	0.000
613.68	24.009	15.300	46.34	0.38	6.956	4.303	188.72		-0.85	0.000
613.96	24.086	15.072	46.26	0.38	7.031	4.320	154.39		-0.85	0.000
614.23	24.161	14.796	46.19	0.38	7.107	4.358	93.55		-0.85	0.000
614.50	24.234	14.483	46.12	0.38	7.203	4.406	55.03		-0.85	0.000
614.77	24.281	14.135	46.07	0.38	7.248	4.463	-26.57		-0.85	0.000
615.04	24.350	13.762	46.00	0.38	7.348	4.532	-62.83		-0.85	0.000
615.31	24.418	13.341	45.93	0.38	7.462	4.611	-127.54		-0.85	0.000
615.59	24.463	12.885	45.89	0.38	7.581	4.700	-151.27		-0.85	0.000
615.86	24.525	12.404	45.83	0.37	7.692	4.797	-179.01		-0.85	0.000
616.13	24.586	11.875	45.76	0.37	7.815	4.898	-174.68		-0.85	0.000
616.40	24.626	11.322	45.72	0.37	7.939	4.952	-163.12		-0.85	0.000
616.68	24.681	10.733	45.67	0.37	8.053	5.060	-163.65		-0.85	0.000
616.94	24.731	10.120	45.62	0.37	8.166	5.173	-181.92		-0.85	0.000
617.22	24.780	9.483	45.57	0.37	8.218	5.283	-187.93		-0.85	0.000
617.49	24.812	8.822	45.54	0.37	8.323	5.393	-185.36		-0.85	0.000
617.77	24.854	8.125	45.50	0.37	8.428	5.500	-178.46		-0.85	0.000
618.04	24.891	7.428	45.46	0.37	8.519	5.603	-157.34		-0.85	0.000
618.31	24.916	6.683	45.43	0.37	8.612	5.699	-152.03		-0.85	0.000
618.58	24.946	5.938	45.40	0.37	8.680	5.791	-149.95		-0.85	0.000
618.85	24.975	5.192	45.38	0.37	8.750	5.874	-151.70		-0.85	0.000
619.13	24.994	4.411	45.36	0.37	8.807	5.911	-145.06		-0.85	0.000
619.40	25.011	3.630	45.34	0.37	8.845	5.979	-142.53		-0.85	0.000
619.67	25.023	2.825	45.33	0.37	8.874	6.034	-102.58		-0.85	0.000
619.94	25.034	2.019	45.32	0.37	8.906	6.083	-75.71		-0.85	0.000
620.21	25.040	1.214	45.31	0.37	8.918	6.126	-38.33		-0.85	0.000
620.47	25.044	0.421	45.31	0.37	8.930	6.151	-32.84		-0.85	0.000
620.74	25.044	-0.385	45.31	0.37	8.941	6.170	-54.76		-0.85	0.000
621.01	25.044	-1.166	45.31	0.37	8.933	6.179	-68.02		-0.85	0.000
621.28	25.044	-1.971	45.31	0.37	8.930	6.180	-73.79		-0.85	0.000
621.55	25.041	-2.752	45.31	0.37	8.935	6.180	-67.66		-0.85	0.000
621.82	25.032	-3.558	45.32	0.37	8.923	6.176	-45.82		-0.85	0.000
622.09	25.008	-4.327	45.34	0.37	8.929	6.173	-37.52		-0.85	0.000
622.36	24.985	-5.096	45.37	0.37	8.918	6.171	-37.52		-0.85	0.000
622.63	24.967	-5.853	45.38	0.37	8.905	6.169	-57.37		-0.85	0.000
622.91	24.936	-6.599	45.41	0.37	8.868	6.161	-114.36		-0.85	0.000
623.18	24.899	-7.332	45.45	0.37	8.863	6.130	-135.09		-0.85	0.000
623.46	24.861	-8.041	45.49	0.37	8.844	6.107	-116.93		-0.85	0.000
623.73	24.832	-8.738	45.52	0.37	8.834	6.087	-91.73		-0.85	0.000
624.01	24.787	-9.411	45.56	0.37	8.819	6.078	-49.07		-0.86	0.000
624.28	24.739	-10.060	45.61	0.37	8.790	6.059	-41.13		-0.86	0.000
624.56	24.686	-10.697	45.66	0.37	8.715	6.029	-50.53		-0.86	0.000
624.83	24.650	-11.286	45.70	0.37	8.622	5.969	-64.60		-0.86	0.000
625.10	24.593	-11.839	45.76	0.37	8.527	5.887	-83.03		-0.86	0.000
625.38	24.531	-12.368	45.82	0.37	8.415	5.787	-79.31		-0.86	0.000
625.65	24.468	-12.861	45.88	0.38	8.312	5.676	-47.83		-0.86	0.000
625.92	24.425	-13.329	45.93	0.38	8.191	5.559	-35.82		-0.86	0.000
626.20	24.358	-13.750	45.99	0.38	8.075	5.442	-69.92		-0.86	0.000
626.47	24.287	-14.135	46.06	0.38	7.969	5.323	-114.56		-0.86	0.000
626.75	24.239	-14.483	46.11	0.38	7.907	5.212	-225.72		-0.86	0.000
627.02	24.167	-14.796	46.18	0.38	7.799	5.156	-274.16		-0.86	0.000
627.30	24.091	-15.072	46.26	0.38	7.704	5.048	-348.85		-0.86	0.000
627.57	24.016	-15.300	46.33	0.38	7.616	4.946	-378.32		-0.86	0.000
627.85	23.966	-15.493	46.38	0.38	7.524	4.855	-429.74		-0.86	0.000
628.12	23.888	-15.649	46.46	0.38	7.440	4.773	-469.26		-0.86	0.000
628.39	23.807	-15.757	46.54	0.38	7.369	4.700	-481.62		-0.86	0.000
628.66	23.755	-15.817	46.59	0.38	7.251	4.637	-470.41		-0.86	0.000
628.94	23.677	-15.841	46.67	0.38	7.129	4.578	-445.37		-0.86	0.000
629.21	23.598	-15.829	46.75	0.38	7.085	4.500	-362.05		-0.86	0.000
629.49	23.517	-15.769	46.83	0.38	6.963	4.428	-316.38		-0.86	0.000
629.76	23.466	-15.661	46.88	0.38	6.860	4.390	-265.85		-0.86	0.000
630.04	23.389	-15.517	46.96	0.38	6.778	4.318	-264.26		-0.86	0.000
630.31	23.311	-15.337	47.04	0.38	6.700	4.261	-281.57		-0.86	0.000
630.58	23.234	-15.108	47.12	0.39	6.627	4.210	-277.52		-0.86	0.000
630.85	23.185	-14.844	47.17	0.39	6.565	4.161	-257.99		-0.86	0.000
631.13	23.112	-14.531	47.24	0.39	6.507	4.125	-242.31		-0.86	0.000
631.41	23.039	-14.195	47.31	0.39	6.465	4.097	-234.87		-0.86	0.000
631.67	22.993	-13.810	47.36	0.39	6.432	4.072	-237.28		-0.86	0.000
631.95	22.925	-13.389	47.43	0.39	6.408	4.053	-261.43		-0.86	0.000
632.23	22.858	-12.945	47.49	0.39	6.380	4.037	-284.33		-0.86	0.000
632.50	22.795	-12.440	47.55	0.39	6.354	4.025	-325.48		-0.86	0.000
632.77	22.755	-11.923	47.59	0.39	6.321	4.018	-322.13		-0.86	0.000
633.05	22.697	-11.370	47.65	0.39	6.306	4.012	-269.53		-0.86	0.000
633.33	22.641	-10.793	47.71	0.39	6.278	4.003	-234.99		-0.86	0.000
633.61	22.590	-10.168	47.76	0.39	6.267	3.996	-174.96		-0.86	0.000
633.88	22.557	-9.507	47.79	0.39	6.247	3.991	-147.92		-0.86	0.000
634.16	22.511	-8.834	47.84	0.39	6.241	3.987	-119.09		-0.86	0.000
634.43	22.470	-8.137	47.88	0.39	6.227	3.985	-112.05		-0.86	0.000
634.71	22.431	-7.428	47.92	0.39	6.218	3.981	-134.05		-0.86	0.000
634.98	22.407	-6.683	47.94	0.39	6.212	3.980	-134.81		-0.86	0.000
635.25	22.376	-5.938	47.97	0.39	6.197	3.978	-114.42		-0.86	0.000
635.53	22.348	-5.180	48.00	0.39	6.192	3.976	-99.87		-0.86	0.000
635.80	22.325	-4.399	48.03	0.39	6.190	3.976	-97.23		-0.86	0.000
636.07	22.314	-3.606	48.04	0.39	6.190	3.976	-149.80		-0.86	0.000
636.34	22.300	-2.812	48.05	0.39	6.189	3.979	-192.32		-0.86	0.000
636.62	22.290	-2.007	48.06	0.39	6.188	3.980	-285.98		-0.86	0.000
636.89	22.282	-1.202	48.07	0.39	6.190	3.980	-330.91		-0.86	0.000
637.16	22.280	-0.373	48.07	0.39	6.201	3.981	-390.60		-0.86	0.000
637.43	22.280	0.433	48.07	0.39	6.198	3.985	-404.19		-0.86	0.000
637.70	22.280	1.238	48.07	0.39	6.203	3.988	-416.27		-0.86	0.000
637.97	22.280	2.043	48.07	0.39	6.207	3.990	-418.77		-0.86	0.000
638.23	22.281	2.825	48.07	0.39	6.207	3.994	-412.04		-0.86	0.000
638.51	22.294	3.606	48.06	0.39	6.204	3.995	-387.79		-0.86	0.000
638.78	22.316	4.375	48.03	0.39	6.214	3.997	-380.68		-0.86	0.000
639.05	22.340	5.168	48.01	0.39	6.211	3.998	-364.38		-0.86	0.000
639.33	22.368	5.913	47.98	0.39	6.213	4.000	-347.11		-0.86	0.000
639.60	22.390	6.671	47.96	0.39	6.216	4.002	-336.56		-0.86	0.000
639.88	22.426	7.404	47.92	0.39	6.208	4.002	-318.86		-0.86	0.000
640.15	22.464	8.125	47.89	0.39	6.217	4.003	-315.62		-0.86	0.000
640.42	22.508	8.810	47.84	0.39	6.218	4.004	-303.50		-0.86	0.000
640.69	22.539	9.471	47.81	0.39	6.228	4.007	-295.63		-0.86	0.000
640.97	22.586	10.108	47.76	0.39	6.235	4.009	-270.02		-0.86	0.000
641.24	22.639	10.733	47.71	0.39	6.251	4.009	-256.78		-0.86	0.000
641.51	22.676	11.322	47.67	0.39	6.249	4.015	-213.31		-0.86	0.000
641.78	22.734	11.875	47.62	0.39	6.265	4.021	-177.73		-0.86	0.000
642.06	22.795	12.392	47.55	0.39	6.276	4.025	-80.33		-0.86	0.000
642.33	22.858	12.885	47.49	0.39	6.286	4.032	-49.16		-0.86	0.000
642.61	22.903	13.341	47.45	0.39	6.306	4.040	-16.63		-0.86	0.000
642.88	22.970	13.762	47.38	0.39	6.320	4.045	-12.74		-0.86	0.000
643.14	23.040	14.159	47.31	0.39	6.330	4.054	-5.42		-0.86	0.000
643.41	23.088	14.495	47.26	0.39	6.355	4.063	-12.81		-0.86	0.000
643.69	23.162	14.796	47.19	0.39	6.372	4.066	-56.07		-0.86	0.000
643.96	23.235	15.072	47.12	0.39	6.392	4.073	-94.55		-0.86	0.000
644.23	23.286	15.300	47.06	0.38	6.404	4.080	-163.30		-0.86	0.000
644.51	23.363	15.493	46.99	0.38	6.421	4.087	-187.29		-0.86	0.000
644.79	23.441	15.637	46.91	0.38	6.444	4.094	-215.20		-0.86	0.000
645.06	23.520	15.757	46.83	0.38	6.488	4.101	-224.96		-0.86	0.000
645.33	23.573	15.817	46.78	0.38	6.529	4.116	-209.32		-0.86	0.000
645.61	23.650	15.841	46.70	0.38	6.582	4.135	-188.91		-0.86	0.000
645.88	23.730	15.829	46.62	0.38	6.640	4.153	-127.36		-0.86	0.000
646.15	23.782	15.769	46.57	0.38	6.692	4.176	-87.01		-0.86	0.000
646.42	23.861	15.661	46.49	0.38	6.747	4.186	3.99		-0.86	0.000
646.68	23.939	15.529	46.41	0.38	6.777	4.210	39.59		-0.86	0.000
646.95	23.990	15.349	46.36	0.38	6.843	4.236	88.91		-0.86	0.000
647.22	24.068	15.132	46.28	0.38	6.911	4.265	97.91		-0.86	0.000
647.49	24.141	14.868	46.21	0.38	6.992	4.301	75.32		-0.86	0.000
647.76	24.217	14.579	46.13	0.38	7.078	4.344	47.43		-0.86	0.000
648.03	24.264	14.243	46.09	0.38	7.169	4.403	-14.23		-0.86	0.000
648.30	24.335	13.858	46.02	0.38	7.266	4.465	-34.02		-0.86	0.000
648.57	24.403	13.450	45.95	0.38	7.383	4.499	-47.26		-0.86	0.000
648.84	24.446	13.005	45.90	0.38	7.437	4.584	-55.09		-0.86	0.000
649.12	24.511	12.524	45.84	0.37	7.541	4.672	-93.60		-0.86	0.000
649.39	24.572	12.019	45.78	0.37	7.672	4.770	-124.63		-0.86	0.000
649.66	24.611	11.466	45.74	0.37	7.780	4.870	-179.17		-0.86	0.000
649.94	24.667	10.889	45.68	0.37	7.898	4.977	-195.07		-0.86	0.000
650.21	24.720	10.288	45.63	0.37	8.005	5.082	-218.77		-0.86	0.000
650.48	24.770	9.651	45.58	0.37	8.119	5.192	-219.72		-0.86	0.000
650.75	24.802	8.990	45.55	0.37	8.228	5.299	-206.36		-0.86	0.000
651.03	24.844	8.305	45.51	0.37	8.323	5.405	-194.29		-0.86	0.000
651.30	24.882	7.608	45.47	0.37	8.373	5.459	-174.02		-0.86	0.000
651.57	24.908	6.875	45.44	0.37	8.458	5.558	-173.99		-0.86	0.000
651.85	24.941	6.142	45.41	0.37	8.543	5.652	-189.25		-0.86	0.000
652.12	24.968	5.385	45.38	0.37	8.608	5.740	-195.74		-0.86	0.000
652.39	24.993	4.603	45.36	0.37	8.669	5.815	-186.78		-0.86	0.000
652.67	25.007	3.822	45.34	0.37	8.716	5.885	-170.31		-0.86	0.000
652.94	25.022	3.029	45.33	0.37	8.749	5.943	-147.21		-0.86	0.000
653.21	25.032	2.224	45.32	0.37	8.789	5.996	-132.21		-0.86	0.000
653.48	25.040	1.394	45.31	0.37	8.804	6.030	-110.45		-0.86	0.000
653.75	25.044	0.601	45.31	0.37	8.812	6.063	-112.22		-0.86	0.000
654.02	25.044	-0.204	45.31	0.37	8.820	6.072	-117.93		-0.86	0.000
654.29	25.044	-0.998	45.31	0.37	8.811	6.081	-125.08		-0.86	0.000
654.56	25.044	-1.815	45.31	0.37	8.808	6.084	-128.74		-0.86	0.000
654.83	25.044	-2.596	45.31	0.37	8.801	6.085	-129.55		-0.86	0.000
655.10	25.027	-3.389	45.32	0.37	8.813	6.082	-133.34		-0.86	0.000
655.37	25.016	-4.183	45.33	0.37	8.795	6.080	-137.09		-0.86	0.000
655.65	24.993	-4.952	45.36	0.37	8.792	6.078	-172.13		-0.86	0.000
655.92	24.964	-5.721	45.39	0.37	8.790	6.075	-200.81		-0.86	0.000
656.20	24.932	-6.490	45.42	0.37	8.742	6.065	-276.67		-0.86	0.000
656.47	24.909	-7.212	45.44	0.37	8.729	6.053	-319.58		-0.86	0.000
656.75	24.871	-7.945	45.48	0.37	8.713	6.016	-342.19		-0.86	0.000
657.02	24.830	-8.630	45.52	0.37	8.708	5.991	-333.64		-0.86	0.000
657.30	24.799	-9.315	45.55	0.37	8.682	5.973	-292.13		-0.86	0.000
657.57	24.752	-9.964	45.60	0.37	8.661	5.953	-265.21		-0.86	0.000
657.85	24.700	-10.589	45.65	0.37	8.578	5.930	-211.44		-0.86	0.000
658.12	24.646	-11.178	45.70	0.37	8.487	5.874	-189.77		-0.86	0.000
658.40	24.608	-11.755	45.74	0.37	8.395	5.797	-151.68		-0.86	0.000
658.67	24.546	-12.284	45.80	0.37	8.334	5.696	-138.87		-0.86	0.000
658.94	24.484	-12.788	45.87	0.37	8.227	5.590	-80.60		-0.86	0.000
659.21	24.420	-13.245	45.93	0.38	8.115	5.475	-42.60		-0.86	0.000
659.49	24.373	-13.678	45.98	0.38	8.008	5.418	40.71		-0.86	0.000
659.75	24.307	-14.075	46.04	0.38	7.898	5.303	62.90		-0.86	0.000
660.03	24.234	-14.423	46.12	0.38	7.784	5.186	61.16		-0.86	0.000
660.30	24.186	-14.736	46.16	0.38	7.684	5.078	45.51		-0.86	0.000
660.57	24.111	-15.024	46.24	0.38	7.586	4.972	7.14		-0.86	0.000
660.84	24.035	-15.252	46.32	0.38	7.501	4.875	-3.78		-0.86	0.000
661.12	23.984	-15.457	46.37	0.38	7.449	4.784	-1.79		-0.86	0.000
661.38	23.907	-15.613	46.44	0.38	7.371	4.703	1.44		-0.86	0.000
661.66	23.829	-15.733	46.52	0.38	7.303	4.637	12.15		-0.86	0.000
661.92	23.750	-15.805	46.60	0.38	7.210	4.602	1.37		-0.86	0.000
662.19	23.696	-15.841	46.65	0.38	7.081	4.547	-59.47		-0.86	0.000
662.47	23.617	-15.841	46.73	0.38	6.969	4.480	-107.48		-0.86	0.000
662.75	23.539	-15.793	46.81	0.38	6.860	4.404	-211.61		-0.86	0.000
663.02	23.485	-15.697	46.87	0.38	6.757	4.337	-257.50		-0.86	0.000
663.29	23.407	-15.565	46.94	0.38	6.717	4.267	-344.76		-0.86	0.000
663.57	23.330	-15.397	47.02	0.38	6.646	4.211	-436.56		-0.86	0.000
663.84	23.254	-15.180	47.10	0.39	6.569	4.160	-485.49		-0.86	0.000
664.12	23.204	-14.916	47.15	0.39	6.515	4.117	-573.14		-0.86	0.000
664.39	23.130	-14.627	47.22	0.39	6.453	4.081	-606.94		-0.86	0.000
664.66	23.057	-14.291	47.29	0.39	6.406	4.067	-643.66		-0.86	0.000
664.94	23.009	-13.906	47.34	0.39	6.368	4.041	-647.99		-0.86	0.000
665.21	22.941	-13.510	47.41	0.39	6.333	4.020	-623.42		-0.86	0.000
665.48	22.875	-13.065	47.48	0.39	6.301	4.007	-587.93		-0.86	0.000
665.76	22.812	-12.584	47.54	0.39	6.270	3.992	-498.62		-0.86	0.000
666.03	22.772	-12.079	47.58	0.39	6.261	3.982	-463.99		-0.86	0.000
666.31	22.711	-11.526	47.64	0.39	6.239	3.972	-431.45		-0.86	0.000
666.58	22.656	-10.937	47.69	0.39	6.219	3.968	-422.70		-0.86	0.000
666.86	22.602	-10.337	47.75	0.39	6.197	3.963	-395.41		-0.86	0.000
667.13	22.567	-9.712	47.78	0.39	6.184	3.957	-375.91		-0.86	0.000
667.41	22.522	-9.038	47.83	0.39	6.180	3.954	-339.36		-0.86	0.000
667.68	22.479	-8.353	47.87	0.39	6.159	3.954	-323.01		-0.86	0.000
667.95	22.453	-7.644	47.90	0.39	6.156	3.951	-303.54		-0.86	0.000
668.23	22.417	-6.935	47.93	0.39	6.143	3.949	-297.44		-0.86	0.000
668.50	22.385	-6.178	47.96	0.39	6.133	3.946	-304.01		-0.86	0.000
668.78	22.357	-5.421	47.99	0.39	6.137	3.944	-310.91		-0.86	0.000
669.05	22.339	-4.627	48.01	0.39	6.120	3.943	-284.27		-0.86	0.000
669.32	22.320	-3.846	48.03	0.39	6.126	3.942	-252.18		-0.86	0.000
669.60	22.303	-3.041	48.05	0.39	6.121	3.943	-168.06		-0.86	0.000
669.87	22.293	-2.248	48.06	0.39	6.126	3.946	-136.87		-0.86	0.000
670.14	22.285	-1.430	48.06	0.39	6.130	3.949	-103.88		-0.86	0.000
670.41	22.282	-0.613	48.07	0.39	6.135	3.952	-104.57		-0.86	0.000
670.68	22.281	0.180	48.07	0.39	6.131	3.953	-105.53		-0.86	0.000
670.95	22.281	0.986	48.07	0.39	6.143	3.957	-97.80		-0.86	0.000
671.22	22.281	1.779	48.07	0.39	6.138	3.961	-81.94		-0.86	0.000
671.48	22.281	2.572	48.07	0.39	6.142	3.964	-69.75		-0.86	0.000
671.75	22.290	3.365	48.06	0.39	6.149	3.965	-43.58		-0.86	0.000
672.02	22.312	4.135	48.04	0.39	6.147	3.967	-30.58		-0.86	0.000
672.30	22.334	4.916	48.02	0.39	6.151	3.969	-28.24		-0.86	0.000
672.58	22.354	5.673	48.00	0.39	6.156	3.972	-40.80		-0.86	0.000
672.85	22.385	6.430	47.96	0.39	6.155	3.973	-81.79		-0.86	0.000
673.12	22.417	7.188	47.93	0.39	6.159	3.973	-99.31		-0.86	0.000
673.40	22.457	7.897	47.89	0.39	6.152	3.975	-102.10		-0.86	0.000
673.67	22.482	8.594	47.87	0.39	6.154	3.978	-94.24		-0.86	0.000
673.94	22.527	9.279	47.82	0.39	6.167	3.979	-74.89		-0.86	0.000
674.21	22.577	9.916	47.77	0.39	6.173	3.982	-66.89		-0.86	0.000
674.49	22.629	10.529	47.72	0.39	6.173	3.983	-59.23		-0.86	0.000
674.76	22.664	11.130	47.69	0.39	6.181	3.988	-57.12		-0.86	0.000
675.03	22.720	11.695	47.63	0.39	6.207	3.993	-89.42		-0.86	0.000
675.31	22.780	12.224	47.57	0.39	6.222	3.997	-97.77		-0.86	0.000
675.58	22.823	12.740	47.53	0.39	6.218	3.999	-102.04		-0.86	0.000
675.85	22.889	13.209	47.46	0.39	6.250	4.005	-91.68		-0.86	0.000
676.13	22.954	13.630	47.40	0.39	6.253	4.013	-65.45		-0.86	0.000
676.39	23.000	14.026	47.35	0.39	6.262	4.019	-65.52		-0.86	0.000
676.66	23.071	14.399	47.28	0.39	6.287	4.026	-64.41		-0.86	0.000
676.93	23.145	14.700	47.20	0.39	6.300	4.033	-67.96		-0.86	0.000
677.21	23.218	14.988	47.13	0.39	6.319	4.039	-86.57		-0.86	0.000
677.48	23.268	15.228	47.08	0.38	6.336	4.045	-92.28		-0.86	0.000
677.75	23.345	15.433	47.00	0.38	6.361	4.054	-95.69		-0.86	0.000
678.02	23.423	15.601	46.93	0.38	6.371	4.058	-83.12		-0.86	0.000
678.29	23.476	15.721	46.87	0.38	6.408	4.062	-57.38		-0.86	0.000
678.58	23.555	15.805	46.79	0.38	6.460	4.070	-44.77		-0.86	0.000
678.85	23.632	15.841	46.72	0.38	6.502	4.088	-5.89		-0.86	0.000
679.11	23.712	15.841	46.64	0.38	6.560	4.103	19.21		-0.86	0.000
679.39	23.764	15.793	46.59	0.38	6.606	4.123	85.90		-0.86	0.000
679.66	23.844	15.709	46.51	0.38	6.664	4.145	114.01		-0.86	0.000
679.93	23.922	15.577	46.43	0.38	6.718	4.166	147.58		-0.86	0.000
680.20	23.975	15.409	46.38	0.38	6.792	4.190	153.95		-0.86	0.000
680.47	24.050	15.204	46.30	0.38	6.820	4.218	152.75		-0.86	0.000
680.74	24.126	14.952	46.22	0.38	6.890	4.234	141.01		-0.86	0.000
681.02	24.175	14.663	46.18	0.38	6.981	4.273	121.85		-0.86	0.000
681.28	24.248	14.339	46.10	0.38	7.062	4.318	107.96		-0.86	0.000
681.56	24.318	13.978	46.03	0.38	7.154	4.374	68.86		-0.86	0.000
681.82	24.364	13.582	45.99	0.38	7.257	4.441	46.04		-0.86	0.000
682.09	24.432	13.149	45.92	0.38	7.373	4.517	-1.24		-0.86	0.000
682.35	24.495	12.692	45.85	0.37	7.423	4.606	-19.59		-0.86	0.000
682.63	24.558	12.200	45.79	0.37	7.538	4.697	-50.70		-0.86	0.000
682.90	24.598	11.671	45.75	0.37	7.655	4.746	-68.52		-0.86	0.000
683.18	24.657	11.094	45.69	0.37	7.771	4.849	-102.17		-0.86	0.000
683.45	24.708	10.505	45.64	0.37	7.884	4.955	-114.81		-0.86	0.000
683.73	24.744	9.856	45.61	0.37	7.995	5.059	-95.66		-0.86	0.000
684.00	24.790	9.207	45.56	0.37	8.089	5.165	-82.43		-0.86	0.000
684.27	24.834	8.534	45.52	0.37	8.193	5.274	-33.68		-0.86	0.000
684.54	24.875	7.837	45.48	0.37	8.292	5.372	-16.64		-0.86	0.000
684.81	24.899	7.127	45.45	0.37	8.326	5.472	8.87		-0.86	0.000
685.07	24.932	6.394	45.42	0.37	8.416	5.564	0.32		-0.86	0.000
685.35	24.962	5.649	45.39	0.37	8.495	5.605	-25.34		-0.86	0.000
685.61	24.980	4.904	45.37	0.37	8.547	5.688	-44.10		-0.86	0.000
685.88	24.998	4.123	45.35	0.37	8.605	5.761	-41.64		-0.86	0.000
686.15	25.018	3.353	45.33	0.37	8.653	5.826	-34.09		-0.86	0.000
686.42	25.028	2.560	45.32	0.37	8.677	5.879	-25.27		-0.86	0.000
686.68	25.039	1.767	45.31	0.37	8.693	5.924	-28.24		-0.86	0.000
686.95	25.043	0.962	45.31	0.37	8.717	5.957	-41.93		-0.86	0.000
687.21	25.045	0.180	45.30	0.37	8.722	5.981	-41.45		-0.86	0.000
687.48	25.045	-0.613	45.30	0.37	8.722	5.987	-27.45		-0.86	0.000
687.75	25.045	-1.394	45.30	0.37	8.720	5.995	-17.67		-0.86	0.000
688.01	25.045	-2.187	45.30	0.37	8.721	5.998	10.73		-0.86	0.000
688.28	25.039	-2.969	45.31	0.37	8.714	5.997	19.51		-0.86	0.000
688.56	25.023	-3.750	45.33	0.37	8.720	5.994	47.26		-0.86	0.000
688.83	25.008	-4.507	45.34	0.37	8.714	5.990	54.16		-0.86	0.000
689.10	24.981	-5.300	45.37	0.37	8.686	5.989	69.19		-0.86	0.000
689.37	24.953	-6.046	45.40	0.37	8.665	5.982	72.23		-0.86	0.000
689.65	24.931	-6.803	45.42	0.37	8.646	5.977	73.39		-0.86	0.000
689.92	24.895	-7.536	45.45	0.37	8.645	5.948	62.13		-0.86	0.000
690.19	24.854	-8.233	45.50	0.37	8.616	5.919	34.62		-0.86	0.000
690.46	24.811	-8.918	45.54	0.37	8.605	5.897	20.18		-0.86	0.000
690.73	24.781	-9.579	45.57	0.37	8.585	5.880	15.10		-0.86	0.000
691.01	24.731	-10.216	45.62	0.37	8.558	5.857	26.39		-0.86	0.000
691.29	24.680	-10.817	45.67	0.37	8.484	5.821	49.43		-0.86	0.000
691.56	24.641	-11.406	45.71	0.37	8.398	5.753	53.26		-0.86	0.000
691.83	24.584	-11.971	45.77	0.37	8.295	5.665	23.43		-0.86	0.000
692.10	24.523	-12.476	45.83	0.37	8.186	5.563	-2.35		-0.86	0.000
692.38	24.458	-12.957	45.89	0.38	8.078	5.509	-59.43		-0.86	0.000
692.65	24.416	-13.413	45.93	0.38	7.962	5.396	-93.06		-0.86	0.000
692.93	24.348	-13.834	46.00	0.38	7.853	5.282	-140.78		-0.86	0.000
693.20	24.276	-14.219	46.07	0.38	7.751	5.169	-168.21		-0.86	0.000
693.48	24.229	-14.555	46.12	0.38	7.694	5.057	-231.63		-0.86	0.000
693.75	24.155	-14.868	46.19	0.38	7.589	4.950	-273.56		-0.86	0.000
694.03	24.080	-15.132	46.27	0.38	7.500	4.848	-337.97		-0.86	0.000
694.30	24.003	-15.349	46.35	0.38	7.412	4.757	-356.55		-0.86	0.000
694.57	23.952	-15.529	46.40	0.38	7.328	4.672	-368.01		-0.86	0.000
694.84	23.875	-15.673	46.48	0.38	7.254	4.597	-365.16		-0.86	0.000
695.12	23.796	-15.769	46.55	0.38	7.178	4.536	-346.87		-0.86	0.000
695.39	23.716	-15.829	46.63	0.38	7.053	4.508	-326.40		-0.86	0.000
695.67	23.664	-15.841	46.69	0.38	6.945	4.456	-270.62		-0.86	0.000
695.95	23.585	-15.817	46.77	0.38	6.830	4.382	-224.93		-0.86	0.000
696.22	23.505	-15.745	46.84	0.38	6.780	4.314	-214.49		-0.86	0.000
696.50	23.427	-15.637	46.92	0.38	6.691	4.244	-214.37		-0.86	0.000
696.77	23.375	-15.481	46.98	0.38	6.608	4.180	-230.58		-0.86	0.000
697.04	23.298	-15.276	47.05	0.38	6.540	4.132	-278.99		-0.86	0.000
697.32	23.222	-15.048	47.13	0.39	6.477	4.088	-295.24		-0.86	0.000
697.59	23.173	-14.772	47.18	0.39	6.423	4.053	-304.70		-0.86	0.000
697.87	23.100	-14.459	47.25	0.39	6.364	4.023	-306.37		-0.86	0.000
698.14	23.029	-14.099	47.32	0.39	6.340	3.999	-334.05		-0.86	0.000
698.41	22.959	-13.714	47.39	0.39	6.304	3.987	-354.30		-0.86	0.000
698.69	22.913	-13.281	47.44	0.39	6.262	3.973	-388.54		-0.86	0.000
698.96	22.850	-12.825	47.50	0.39	6.250	3.957	-387.52		-0.86	0.000
699.24	22.788	-12.320	47.56	0.39	6.219	3.945	-331.20		-0.86	0.000
699.51	22.726	-11.791	47.62	0.39	6.200	3.938	-282.40		-0.86	0.000
699.78	22.686	-11.226	47.66	0.39	6.175	3.930	-166.06		-0.86	0.000
700.06	22.632	-10.625	47.72	0.39	6.159	3.924	-111.21		-0.86	0.000
700.34	22.581	-10.012	47.77	0.39	6.143	3.917	-21.02		-0.86	0.000
700.60	22.549	-9.351	47.80	0.39	6.127	3.913	8.94		-0.86	0.000
700.88	22.503	-8.678	47.85	0.39	6.120	3.911	66.60		-0.86	0.000
701.14	22.463	-8.005	47.89	0.39	6.108	3.910	96.27		-0.86	0.000
701.42	22.426	-7.284	47.92	0.39	6.101	3.909	154.38		-0.86	0.000
701.69	22.403	-6.562	47.95	0.39	6.093	3.905	174.12		-0.86	0.000
701.96	22.372	-5.805	47.98	0.39	6.081	3.903	185.38		-0.86	0.000
702.24	22.347	-5.048	48.00	0.39	6.073	3.901	177.37		-0.86	0.000
702.51	22.334	-4.267	48.02	0.39	6.079	3.902	143.57		-0.86	0.000
702.78	22.311	-3.474	48.04	0.39	6.078	3.903	127.85		-0.86	0.000
703.05	22.299	-2.680	48.05	0.39	6.069	3.903	96.13		-0.86	0.000
703.32	22.290	-1.863	48.06	0.39	6.080	3.906	75.87		-0.86	0.000
703.59	22.282	-1.070	48.07	0.39	6.075	3.907	40.84		-0.86	0.000
703.85	22.282	-0.252	48.07	0.39	6.075	3.909	17.86		-0.86	0.000
704.12	22.280	0.517	48.07	0.39	6.083	3.911	-54.07		-0.86	0.000
704.39	22.280	1.310	48.07	0.39	6.090	3.914	-96.35		-0.86	0.000
704.66	22.280	2.103	48.07	0.39	6.096	3.917	-177.67		-0.86	0.000
704.93	22.281	2.897	48.07	0.39	6.090	3.920	-210.08		-0.86	0.000
705.20	22.300	3.678	48.05	0.39	6.098	3.924	-248.67		-0.86	0.000
705.47	22.322	4.447	48.03	0.39	6.089	3.925	-258.81		-0.86	0.000
705.74	22.348	5.240	48.00	0.39	6.099	3.926	-285.98		-0.86	0.000
706.02	22.367	5.998	47.98	0.39	6.105	3.926	-303.92		-0.86	0.000
706.29	22.398	6.743	47.95	0.39	6.095	3.927	-343.98		-0.86	0.000
706.56	22.436	7.464	47.91	0.39	6.102	3.930	-356.77		-0.86	0.000
706.84	22.461	8.173	47.89	0.39	6.096	3.931	-336.79		-0.86	0.000
707.11	22.506	8.858	47.84	0.39	6.112	3.932	-301.95		-0.86	0.000
707.38	22.549	9.531	47.80	0.39	6.108	3.934	-205.72		-0.86	0.000
707.65	22.600	10.168	47.75	0.39	6.117	3.937	-157.74		-0.86	0.000
707.92	22.634	10.769	47.72	0.39	6.130	3.940	-80.44		-0.86	0.000
708.19	22.690	11.358	47.66	0.39	6.132	3.945	-70.27		-0.86	0.000
708.47	22.748	11.899	47.60	0.39	6.150	3.948	-83.74		-0.86	0.000
708.73	22.789	12.428	47.56	0.39	6.159	3.952	-97.19		-0.86	0.000
709.01	22.853	12.921	47.50	0.39	6.174	3.955	-98.07		-0.86	0.000
709.28	22.918	13.353	47.43	0.39	6.191	3.962	-93.36		-0.86	0.000
709.56	22.985	13.786	47.37	0.39	6.203	3.967	-75.31		-0.86	0.000
709.83	23.031	14.171	47.32	0.39	6.222	3.974	-74.74		-0.86	0.000
710.10	23.103	14.519	47.25	0.39	6.232	3.980	-93.62		-0.86	0.000
710.38	23.177	14.820	47.17	0.39	6.242	3.987	-115.54		-0.86	0.000
710.65	23.226	15.084	47.12	0.39	6.266	3.991	-178.22		-0.86	0.000
710.92	23.303	15.325	47.05	0.38	6.282	3.998	-215.44		-0.86	0.000
711.20	23.381	15.505	46.97	0.38	6.309	4.004	-266.44		-0.86	0.000
711.47	23.458	15.649	46.89	0.38	6.329	4.010	-282.69		-0.86	0.000
711.75	23.509	15.757	46.84	0.38	6.386	4.016	-304.75		-0.86	0.000
712.02	23.589	15.817	46.76	0.38	6.416	4.026	-305.84		-0.86	0.000
712.30	23.668	15.841	46.68	0.38	6.477	4.042	-297.63		-0.86	0.000
712.57	23.721	15.817	46.63	0.38	6.519	4.059	-290.19		-0.86	0.000
712.84	23.800	15.757	46.55	0.38	6.575	4.079	-286.54		-0.86	0.000
713.12	23.877	15.649	46.47	0.38	6.611	4.099	-285.67		-0.86	0.000
713.39	23.955	15.505	46.39	0.38	6.658	4.120	-263.61		-0.86	0.000
713.66	24.007	15.312	46.34	0.38	6.732	4.147	-242.36		-0.86	0.000
713.94	24.084	15.084	46.27	0.38	6.798	4.175	-172.31		-0.86	0.000
714.21	24.159	14.820	46.19	0.38	6.869	4.191	-129.50		-0.86	0.000
714.48	24.208	14.519	46.14	0.38	6.961	4.229	-40.23		-0.86	0.000
714.75	24.280	14.171	46.07	0.38	7.047	4.275	-4.30		-0.86	0.000
715.02	24.349	13.786	46.00	0.38	7.132	4.336	31.28		-0.86	0.000
715.29	24.417	13.377	45.93	0.38	7.201	4.402	36.28		-0.86	0.000
715.57	24.462	12.921	45.89	0.38	7.302	4.483	27.42		-0.86	0.000
715.83	24.523	12.428	45.83	0.37	7.406	4.568	28.42		-0.86	0.000
716.10	24.585	11.911	45.77	0.37	7.524	4.661	22.87		-0.86	0.000
716.36	24.625	11.382	45.73	0.37	7.641	4.712	25.87		-0.86	0.000
716.63	24.680	10.793	45.67	0.37	7.741	4.813	39.10		-0.86	0.000
716.90	24.734	10.216	45.62	0.37	7.859	4.916	38.35		-0.86	0.000
717.17	24.764	9.579	45.59	0.37	7.954	5.020	19.25		-0.86	0.000
717.44	24.811	8.942	45.54	0.37	8.007	5.123	6.18		-0.86	0.000
717.71	24.855	8.245	45.49	0.37	8.110	5.223	-17.00		-0.86	0.000
717.98	24.880	7.560	45.47	0.37	8.197	5.321	-21.87		-0.86	0.000
718.25	24.916	6.839	45.43	0.37	8.288	5.419	-24.96		-0.86	0.000
718.52	24.948	6.118	45.40	0.37	8.355	5.464	-15.17		-0.86	0.000
718.79	24.968	5.361	45.38	0.37	8.429	5.547	-3.21		-0.86	0.000
719.05	24.990	4.603	45.36	0.37	8.473	5.626	-0.73		-0.86	0.000
719.32	25.012	3.810	45.34	0.37	8.492	5.691	-34.33		-0.86	0.000
719.59	25.022	3.053	45.33	0.37	8.542	5.748	-53.19		-0.86	0.000
719.86	25.034	2.260	45.32	0.37	8.573	5.794	-86.15		-0.86	0.000
720.13	25.043	1.454	45.31	0.37	8.593	5.835	-105.97		-0.86	0.000
720.40	25.045	0.637	45.30	0.37	8.607	5.862	-147.73		-0.86	0.000
720.67	25.045	-0.144	45.30	0.37	8.606	5.872	-169.02		-0.86	0.000
720.94	25.045	-0.950	45.30	0.37	8.605	5.883	-206.42		-0.86	0.000
721.21	25.045	-1.743	45.30	0.37	8.603	5.887	-215.16		-0.86	0.000
721.47	25.045	-2.548	45.30	0.37	8.596	5.888	-220.18		-0.86	0.000
721.75	25.034	-3.329	45.32	0.37	8.591	5.885	-217.69		-0.86	0.000
722.02	25.012	-4.111	45.34	0.37	8.591	5.884	-230.69		-0.86	0.000
722.29	24.996	-4.904	45.35	0.37	8.584	5.882	-235.80		-0.86	0.000
722.57	24.968	-5.673	45.38	0.37	8.571	5.879	-261.16		-0.86	0.000
722.85	24.939	-6.418	45.41	0.37	8.535	5.872	-262.84		-0.86	0.000
723.12	24.903	-7.175	45.45	0.37	8.507	5.841	-233.51		-0.86	0.000
723.40	24.877	-7.897	45.47	0.37	8.506	5.826	-206.62		-0.86	0.000
723.67	24.836	-8.594	45.51	0.37	8.492	5.798	-134.42		-0.86	0.000
723.94	24.793	-9.279	45.56	0.37	8.475	5.779	-100.10		-0.86	0.000
724.22	24.761	-9.928	45.59	0.37	8.455	5.761	-79.36		-0.86	0.000
724.49	24.708	-10.541	45.64	0.37	8.399	5.736	-86.53		-0.86	0.000
724.77	24.654	-11.142	45.70	0.37	8.300	5.679	-98.62		-0.86	0.000
725.05	24.598	-11.707	45.75	0.37	8.194	5.604	-99.30		-0.86	0.000
725.32	24.558	-12.260	45.79	0.37	8.103	5.515	-103.06		-0.86	0.000
725.59	24.495	-12.764	45.85	0.37	8.009	5.406	-115.54		-0.86	0.000
725.87	24.430	-13.221	45.92	0.38	7.896	5.297	-173.87		-0.86	0.000
726.14	24.363	-13.654	45.99	0.38	7.767	5.184	-217.44		-0.86	0.000
726.42	24.317	-14.063	46.03	0.38	7.681	5.127	-320.39		-0.86	0.000
726.69	24.244	-14.423	46.11	0.38	7.570	5.017	-436.63		-0.86	0.000
726.97	24.172	-14.748	46.18	0.38	7.522	4.911	-488.65		-0.86	0.000
727.25	24.098	-15.024	46.25	0.38	7.434	4.810	-516.34		-0.86	0.000
727.52	24.048	-15.264	46.30	0.38	7.337	4.712	-506.50		-0.86	0.000
727.80	23.971	-15.469	46.38	0.38	7.266	4.630	-452.01		-0.86	0.000
728.07	23.893	-15.625	46.46	0.38	7.180	4.555	-423.52		-0.86	0.000
728.35	23.814	-15.733	46.54	0.38	7.119	4.492	-353.98		-0.86	0.000
728.62	23.761	-15.817	46.59	0.38	7.013	4.438	-312.41		-0.86	0.000
728.90	23.682	-15.841	46.67	0.38	6.895	4.389	-223.13		-0.86	0.000
729.17	23.603	-15.829	46.75	0.38	6.796	4.320	-173.64		-0.86	0.000
729.44	23.550	-15.781	46.80	0.38	6.680	4.253	-65.32		-0.86	0.000
729.72	23.472	-15.685	46.88	0.38	6.647	4.224	-6.78		-0.86	0.000
729.98	23.394	-15.541	46.96	0.38	6.553	4.157	97.39		-0.86	0.000
730.26	23.341	-15.373	47.01	0.38	6.492	4.105	119.65		-0.86	0.000
730.53	23.266	-15.156	47.08	0.38	6.418	4.062	121.46		-0.86	0.000
730.81	23.191	-14.892	47.16	0.39	6.368	4.020	119.08		-0.86	0.000
731.08	23.117	-14.591	47.23	0.39	6.318	3.988	134.80		-0.86	0.000
731.35	23.067	-14.255	47.28	0.39	6.275	3.961	152.54		-0.86	0.000
731.63	22.998	-13.882	47.35	0.39	6.239	3.943	197.17		-0.86	0.000
731.90	22.930	-13.474	47.42	0.39	6.215	3.927	220.32		-0.86	0.000
732.17	22.863	-13.017	47.49	0.39	6.186	3.913	192.13		-0.86	0.000
732.44	22.821	-12.536	47.53	0.39	6.171	3.910	148.74		-0.86	0.000
732.72	22.761	-12.031	47.59	0.39	6.128	3.898	34.65		-0.86	0.000
732.99	22.702	-11.490	47.65	0.39	6.118	3.893	-25.36		-0.86	0.000
733.26	22.663	-10.913	47.69	0.39	6.100	3.889	-113.07		-0.86	0.000
733.54	22.609	-10.313	47.74	0.39	6.094	3.885	-149.07		-0.86	0.000
733.81	22.561	-9.675	47.79	0.39	6.066	3.880	-237.09		-0.86	0.000
734.08	22.516	-9.014	47.83	0.39	6.053	3.877	-292.65		-0.86	0.000
734.36	22.485	-8.329	47.87	0.39	6.044	3.875	-419.16		-0.86	0.000
734.63	22.447	-7.632	47.90	0.39	6.030	3.873	-480.25		-0.86	0.000
734.90	22.409	-6.887	47.94	0.39	6.029	3.870	-571.52		-0.86	0.000
735.17	22.389	-6.142	47.96	0.39	6.017	3.868	-585.67		-0.86	0.000
735.45	22.359	-5.385	47.99	0.39	6.013	3.866	-560.28		-0.86	0.000
735.73	22.335	-4.627	48.01	0.39	6.011	3.865	-540.74		-0.86	0.000
736.00	22.317	-3.822	48.03	0.39	6.003	3.865	-493.85		-0.86	0.000
736.28	22.306	-3.017	48.04	0.39	6.008	3.865	-480.88		-0.86	0.000
736.55	22.290	-2.200	48.06	0.39	6.002	3.866	-477.31		-0.86	0.000
736.82	22.286	-1.394	48.06	0.39	6.019	3.870	-458.91		-0.86	0.000
737.09	22.282	-0.577	48.07	0.39	6.011	3.873	-444.75		-0.86	0.000
737.36	22.280	0.228	48.07	0.39	6.016	3.877	-410.00		-0.86	0.000
737.63	22.280	1.034	48.07	0.39	6.023	3.882	-390.54		-0.86	0.000
737.90	22.280	1.839	48.07	0.39	6.017	3.883	-345.97		-0.86	0.000
738.17	22.280	2.632	48.07	0.39	6.028	3.886	-327.53		-0.86	0.000
738.44	22.294	3.413	48.06	0.39	6.027	3.888	-307.49		-0.86	0.000
738.71	22.316	4.195	48.03	0.39	6.029	3.891	-286.21		-0.86	0.000
738.98	22.330	4.976	48.02	0.39	6.028	3.892	-271.05		-0.86	0.000
739.26	22.357	5.733	47.99	0.39	6.026	3.894	-234.89		-0.86	0.000
739.54	22.389	6.478	47.96	0.39	6.039	3.895	-195.83		-0.86	0.000
739.81	22.423	7.236	47.93	0.39	6.033	3.898	-175.18		-0.86	0.000
740.08	22.449	7.957	47.90	0.39	6.042	3.898	-114.13		-0.86	0.000
740.35	22.490	8.642	47.86	0.39	6.035	3.899	-88.82		-0.86	0.000
740.62	22.535	9.315	47.82	0.39	6.045	3.900	-40.68		-0.86	0.000
740.89	22.570	9.952	47.78	0.39	6.048	3.902	-22.64		-0.86	0.000
741.16	22.620	10.577	47.73	0.39	6.061	3.905	14.78		-0.86	0.000
741.43	22.673	11.154	47.68	0.39	6.070	3.909	44.20		-0.86	0.000
741.70	22.711	11.707	47.64	0.39	6.074	3.914	51.39		-0.86	0.000
741.97	22.772	12.248	47.58	0.39	6.092	3.920	31.59		-0.86	0.000
742.24	22.835	12.728	47.52	0.39	6.105	3.925	18.63		-0.86	0.000
742.50	22.877	13.197	47.47	0.39	6.115	3.928	4.62		-0.86	0.000
742.77	22.944	13.618	47.41	0.39	6.138	3.934	3.07		-0.86	0.000
743.04	23.016	14.014	47.33	0.39	6.147	3.940	-3.22		-0.86	0.000
743.31	23.061	14.363	47.29	0.39	6.165	3.946	-8.01		-0.86	0.000
743.58	23.134	14.687	47.22	0.39	6.173	3.950	-20.86		-0.86	0.000
743.86	23.208	14.976	47.14	0.39	6.188	3.958	-23.41		-0.86	0.000
744.12	23.284	15.216	47.07	0.38	6.216	3.964	-32.72		-0.86	0.000
744.39	23.334	15.421	47.02	0.38	6.228	3.969	-38.24		-0.86	0.000
744.66	23.412	15.589	46.94	0.38	6.251	3.974	-3.43		-0.86	0.000
744.93	23.489	15.709	46.86	0.38	6.284	3.980	24.96		-0.86	0.000
745.20	23.543	15.793	46.81	0.38	6.330	3.986	68.55		-0.86	0.000
745.47	23.622	15.841	46.73	0.38	6.351	4.001	62.34		-0.86	0.000
745.74	23.700	15.841	46.65	0.38	6.396	4.014	5.80		-0.86	0.000
746.02	23.754	15.805	46.60	0.38	6.451	4.033	-40.32		-0.86	0.000
746.29	23.834	15.721	46.52	0.38	6.503	4.055	-136.68		-0.86	0.000
746.56	23.911	15.601	46.44	0.38	6.563	4.074	-184.12		-0.86	0.000
746.84	23.962	15.433	46.39	0.38	6.626	4.095	-273.09		-0.86	0.000
747.12	24.039	15.228	46.31	0.38	6.687	4.120	-318.49		-0.86	0.000
747.39	24.116	14.976	46.23	0.38	6.762	4.134	-419.59		-0.86	0.000
747.66	24.189	14.687	46.16	0.38	6.845	4.166	-472.34		-0.86	0.000
747.93	24.237	14.363	46.11	0.38	6.882	4.204	-541.46		-0.86	0.000
748.20	24.308	14.014	46.04	0.38	6.970	4.257	-547.35		-0.86	0.000
748.48	24.377	13.606	45.97	0.38	7.066	4.317	-504.99		-0.86	0.000
748.75	24.444	13.173	45.91	0.38	7.163	4.387	-467.26		-0.86	0.000
749.03	24.487	12.704	45.86	0.37	7.278	4.466	-363.55		-0.86	0.000
749.29	24.549	12.200	45.80	0.37	7.387	4.555	-302.55		-0.86	0.000
749.57	24.609	11.659	45.74	0.37	7.500	4.648	-189.44		-0.86	0.000
749.84	24.646	11.106	45.70	0.37	7.605	4.748	-136.39		-0.86	0.000
750.12	24.700	10.493	45.65	0.37	7.712	4.798	-65.17		-0.86	0.000
750.39	24.753	9.880	45.60	0.37	7.768	4.897	-37.48		-0.86	0.000
750.65	24.782	9.219	45.57	0.37	7.870	4.999	19.02		-0.86	0.000
750.92	24.828	8.546	45.52	0.37	7.972	5.101	44.16		-0.86	0.000
751.19	24.868	7.873	45.48	0.37	8.068	5.199	77.55		-0.86	0.000
751.46	24.896	7.175	45.45	0.37	8.140	5.295	76.55		-0.86	0.000
751.73	24.928	6.430	45.42	0.37	8.216	5.386	47.86		-0.86	0.000
751.99	24.959	5.709	45.39	0.37	8.290	5.466	26.43		-0.86	0.000
752.26	24.977	4.952	45.37	0.37	8.315	5.507	-22.34		-0.86	0.000
752.53	24.996	4.183	45.35	0.37	8.374	5.579	-41.86		-0.86	0.000
752.81	25.014	3.401	45.34	0.37	8.413	5.641	-78.38		-0.86	0.000
753.07	25.032	2.620	45.32	0.37	8.451	5.693	-88.80		-0.86	0.000
753.34	25.035	1.803	45.32	0.37	8.475	5.736	-126.73		-0.86	0.000
753.61	25.043	1.022	45.31	0.37	8.501	5.769	-154.15		-0.86	0.000
753.88	25.045	0.216	45.30	0.37	8.497	5.795	-204.68		-0.86	0.000
754.15	25.045	-0.577	45.30	0.37	8.498	5.808	-229.05		-0.86	0.000
754.42	25.045	-1.382	45.30	0.37	8.496	5.811	-250.16		-0.86	0.000
754.68	25.045	-2.187	45.30	0.37	8.490	5.813	-261.38		-0.86	0.000
754.96	25.044	-2.981	45.31	0.37	8.489	5.812	-285.54		-0.86	0.000
755.23	25.027	-3.762	45.32	0.37	8.495	5.809	-293.02		-0.86	0.000
755.51	25.003	-4.543	45.35	0.37	8.489	5.808	-292.59		-0.86	0.000
755.78	24.977	-5.313	45.37	0.37	8.473	5.807	-276.36		-0.86	0.000
756.06	24.957	-6.094	45.39	0.37	8.438	5.804	-237.09		-0.86	0.000
756.33	24.925	-6.839	45.43	0.37	8.411	5.785	-218.15		-0.86	0.000
756.61	24.889	-7.596	45.46	0.37	8.400	5.747	-188.09		-0.86	0.000
756.89	24.862	-8.281	45.49	0.37	8.392	5.721	-182.12		-0.86	0.000
757.16	24.820	-8.978	45.53	0.37	8.385	5.711	-154.05		-0.86	0.000
757.44	24.772	-9.651	45.58	0.37	8.354	5.692	-128.83		-0.86	0.000
757.72	24.722	-10.288	45.63	0.37	8.320	5.669	-55.12		-0.86	0.000
757.99	24.687	-10.889	45.66	0.37	8.233	5.637	-12.72		-0.86	0.000
758.26	24.630	-11.490	45.72	0.37	8.144	5.570	-18.25		-0.86	0.000
758.53	24.571	-12.031	45.78	0.37	8.048	5.485	-48.88		-0.86	0.000
758.81	24.511	-12.548	45.84	0.37	7.935	5.384	-62.74		-0.86	0.000
759.08	24.468	-13.017	45.88	0.38	7.830	5.275	-73.14		-0.86	0.000
759.35	24.402	-13.486	45.95	0.38	7.720	5.165	-82.10		-0.86	0.000
759.64	24.332	-13.882	46.02	0.38	7.665	5.059	-83.34		-0.86	0.000
759.90	24.264	-14.267	46.09	0.38	7.566	4.945	-88.12		-0.86	0.000
760.18	24.214	-14.603	46.14	0.38	7.470	4.891	-106.84		-0.86	0.000
760.46	24.141	-14.904	46.21	0.38	7.370	4.790	-113.25		-0.86	0.000
760.73	24.067	-15.156	46.28	0.38	7.283	4.694	-115.26		-0.86	0.000
761.01	24.016	-15.385	46.33	0.38	7.194	4.608	-122.56		-0.86	0.000
761.28	23.939	-15.553	46.41	0.38	7.124	4.527	-135.29		-0.86	0.000
761.55	23.861	-15.697	46.49	0.38	7.052	4.461	-132.66		-0.86	0.000
761.82	23.780	-15.781	46.57	0.38	6.978	4.404	-107.27		-0.86	0.000
762.10	23.729	-15.829	46.62	0.38	6.855	4.358	-92.76		-0.86	0.000
762.37	23.650	-15.841	46.70	0.38	6.807	4.301	-42.38		-0.86	0.000
762.64	23.570	-15.805	46.78	0.38	6.707	4.234	-15.88		-0.86	0.000
762.91	23.516	-15.733	46.83	0.38	6.592	4.172	0.52		-0.86	0.000
763.19	23.440	-15.625	46.91	0.38	6.513	4.142	-7.04		-0.86	0.000
763.46	23.362	-15.469	46.99	0.38	6.444	4.084	-51.36		-0.86	0.000
763.73	23.284	-15.264	47.07	0.38	6.374	4.035	-75.50		-0.86	0.000
764.01	23.234	-15.024	47.12	0.39	6.317	3.993	-91.83		-0.86	0.000
764.28	23.159	-14.748	47.19	0.39	6.261	3.958	-98.89		-0.86	0.000
764.55	23.086	-14.423	47.26	0.39	6.222	3.934	-132.22		-0.86	0.000
764.83	23.016	-14.075	47.33	0.39	6.184	3.912	-150.97		-0.86	0.000
765.11	22.971	-13.678	47.38	0.39	6.163	3.894	-194.48		-0.86	0.000
765.38	22.902	-13.245	47.45	0.39	6.134	3.881	-218.50		-0.86	0.000
765.66	22.838	-12.764	47.51	0.39	6.110	3.867	-267.56		-0.86	0.000
765.93	22.775	-12.272	47.58	0.39	6.085	3.861	-284.73		-0.86	0.000
766.21	22.734	-11.731	47.62	0.39	6.056	3.855	-294.98		-0.86	0.000
766.48	22.677	-11.166	47.67	0.39	6.046	3.849	-288.68		-0.86	0.000
766.76	22.623	-10.553	47.73	0.39	6.022	3.846	-273.90		-0.86	0.000
767.03	22.589	-9.952	47.76	0.39	6.009	3.837	-265.91		-0.86	0.000
767.32	22.539	-9.279	47.81	0.39	6.000	3.833	-269.27		-0.86	0.000
767.59	22.494	-8.606	47.86	0.39	5.987	3.831	-292.66		-0.86	0.000
767.86	22.456	-7.885	47.89	0.39	5.981	3.829	-308.71		-0.86	0.000
768.13	22.430	-7.163	47.92	0.39	5.972	3.827	-325.29		-0.86	0.000
768.41	22.395	-6.430	47.95	0.39	5.962	3.823	-330.09		-0.86	0.000
768.68	22.367	-5.673	47.98	0.39	5.957	3.820	-325.46		-0.86	0.000
768.95	22.341	-4.904	48.01	0.39	5.953	3.819	-321.57		-0.86	0.000
769.23	22.326	-4.135	48.02	0.39	5.948	3.819	-323.11		-0.86	0.000
769.50	22.309	-3.329	48.04	0.39	5.947	3.818	-343.10		-0.86	0.000
769.77	22.293	-2.524	48.06	0.39	5.945	3.819	-399.24		-0.86	0.000
770.05	22.290	-1.719	48.06	0.39	5.952	3.821	-423.02		-0.86	0.000
770.32	22.281	-0.913	48.07	0.39	5.952	3.823	-427.50		-0.86	0.000
770.59	22.281	-0.096	48.07	0.39	5.956	3.826	-409.64		-0.86	0.000
770.85	22.281	0.697	48.07	0.39	5.959	3.827	-355.04		-0.86	0.000
771.12	22.281	1.514	48.07	0.39	5.963	3.831	-328.93		-0.86	0.000
771.39	22.281	2.296	48.07	0.39	5.969	3.833	-267.26		-0.86	0.000
771.66	22.289	3.089	48.06	0.39	5.969	3.834	-247.56		-0.86	0.000
771.93	22.298	3.882	48.05	0.39	5.970	3.837	-212.58		-0.86	0.000
772.20	22.325	4.651	48.03	0.39	5.973	3.838	-191.31		-0.86	0.000
772.47	22.352	5.421	48.00	0.39	5.976	3.839	-126.08		-0.86	0.000
772.75	22.370	6.166	47.98	0.39	5.978	3.841	-87.41		-0.86	0.000
773.02	22.403	6.899	47.95	0.39	5.983	3.842	-2.91		-0.86	0.000
773.28	22.440	7.632	47.91	0.39	5.979	3.842	31.77		-0.86	0.000
773.56	22.466	8.329	47.88	0.39	5.974	3.841	68.24		-0.86	0.000
773.83	22.511	8.990	47.84	0.39	5.992	3.845	68.22		-0.86	0.000
774.10	22.557	9.651	47.79	0.39	5.989	3.846	54.98		-0.86	0.000
774.37	22.590	10.288	47.76	0.39	5.997	3.850	48.87		-0.86	0.000
774.64	22.643	10.889	47.71	0.39	6.012	3.852	44.77		-0.86	0.000
774.91	22.697	11.454	47.65	0.39	6.018	3.856	33.88		-0.86	0.000
775.18	22.757	11.995	47.59	0.39	6.030	3.861	-7.60		-0.86	0.000
775.44	22.798	12.512	47.55	0.39	6.044	3.865	-34.02		-0.86	0.000
775.71	22.862	12.981	47.49	0.39	6.065	3.871	-83.16		-0.86	0.000
775.99	22.927	13.425	47.42	0.39	6.072	3.876	-105.28		-0.86	0.000
776.26	22.972	13.834	47.38	0.39	6.091	3.880	-139.92		-0.86	0.000
776.53	23.043	14.231	47.31	0.39	6.103	3.884	-148.99		-0.86	0.000
776.81	23.114	14.555	47.24	0.39	6.112	3.890	-153.44		-0.86	0.000
777.08	23.163	14.856	47.19	0.39	6.131	3.897	-149.23		-0.86	0.000
777.35	23.239	15.120	47.11	0.39	6.144	3.900	-127.24		-0.86	0.000
777.63	23.314	15.349	47.04	0.38	6.169	3.907	-110.93		-0.86	0.000
777.90	23.391	15.529	46.96	0.38	6.186	3.913	-41.96		-0.86	0.000
778.17	23.444	15.673	46.91	0.38	6.213	3.918	2.40		-0.86	0.000
778.44	23.522	15.769	46.83	0.38	6.259	3.924	93.45		-0.86	0.000
778.71	23.602	15.829	46.75	0.38	6.295	3.931	124.36		-0.86	0.000
778.98	23.654	15.841	46.70	0.38	6.334	3.949	169.00		-0.86	0.000
779.25	23.734	15.817	46.62	0.38	6.374	3.963	186.38		-0.86	0.000
779.52	23.812	15.757	46.54	0.38	6.430	3.983	202.35		-0.86	0.000
779.79	23.864	15.649	46.49	0.38	6.482	4.000	206.23		-0.86	0.000
780.06	23.944	15.505	46.41	0.38	6.546	4.017	191.76		-0.86	0.000
780.33	24.020	15.312	46.33	0.38	6.610	4.038	176.82		-0.86	0.000
780.61	24.096	15.084	46.25	0.38	6.666	4.061	135.36		-0.86	0.000
780.88	24.145	14.820	46.20	0.38	6.756	4.090	101.46		-0.86	0.000
781.15	24.220	14.507	46.13	0.38	6.790	4.108	30.52		-0.86	0.000
781.42	24.290	14.159	46.06	0.38	6.871	4.151	3.27		-0.86	0.000
781.69	24.337	13.786	46.01	0.38	6.969	4.205	-27.56		-0.86	0.000
781.96	24.405	13.365	45.94	0.38	7.060	4.264	-36.17		-0.86	0.000
782.23	24.470	12.909	45.88	0.38	7.161	4.338	-52.21		-0.86	0.000
782.50	24.512	12.428	45.84	0.37	7.265	4.417	-55.51		-0.86	0.000
782.77	24.573	11.911	45.78	0.37	7.380	4.505	-43.19		-0.86	0.000
783.05	24.631	11.370	45.72	0.37	7.482	4.597	-28.54		-0.86	0.000
783.32	24.686	10.793	45.66	0.37	7.598	4.693	11.93		-0.86	0.000
783.59	24.721	10.168	45.63	0.37	7.645	4.743	34.44		-0.86	0.000
783.86	24.772	9.531	45.58	0.37	7.748	4.841	96.22		-0.86	0.000
784.12	24.817	8.870	45.53	0.37	7.849	4.941	124.06		-0.86	0.000
784.40	24.845	8.197	45.50	0.37	7.945	5.037	173.83		-0.86	0.000
784.67	24.885	7.512	45.47	0.37	8.029	5.135	176.21		-0.86	0.000
784.94	24.920	6.779	45.43	0.37	8.107	5.226	150.39		-0.86	0.000
785.21	24.940	6.046	45.41	0.37	8.182	5.309	130.57		-0.86	0.000
785.49	24.968	5.288	45.38	0.37	8.212	5.388	78.44		-0.86	0.000
785.76	24.993	4.519	45.36	0.37	8.266	5.457	38.53		-0.86	0.000
786.03	25.007	3.726	45.34	0.37	8.316	5.491	-63.26		-0.86	0.000
786.30	25.020	2.933	45.33	0.37	8.347	5.546	-117.53		-0.86	0.000
786.57	25.030	2.139	45.32	0.37	8.378	5.591	-199.53		-0.86	0.000
786.84	25.039	1.334	45.31	0.37	8.399	5.629	-236.17		-0.86	0.000
787.10	25.041	0.529	45.31	0.37	8.400	5.654	-291.42		-0.86	0.000
787.37	25.043	-0.264	45.31	0.37	8.405	5.672	-322.69		-0.86	0.000
787.64	25.043	-1.046	45.31	0.37	8.402	5.681	-340.83		-0.86	0.000
787.91	25.043	-1.863	45.31	0.37	8.400	5.683	-350.87		-0.86	0.000
788.18	25.043	-2.644	45.31	0.37	8.401	5.681	-356.77		-0.86	0.000
788.45	25.026	-3.450	45.32	0.37	8.400	5.679	-374.47		-0.86	0.000
788.73	25.014	-4.219	45.34	0.37	8.392	5.677	-375.83		-0.86	0.000
789.01	24.989	-5.012	45.36	0.37	8.383	5.673	-376.63		-0.86	0.000
789.28	24.961	-5.769	45.39	0.37	8.370	5.670	-382.94		-0.86	0.000
789.56	24.930	-6.550	45.42	0.37	8.328	5.660	-394.17		-0.86	0.000
789.83	24.908	-7.284	45.44	0.37	8.323	5.633	-403.98		-0.86	0.000
790.10	24.867	-8.017	45.48	0.37	8.308	5.606	-407.57		-0.86	0.000
790.38	24.826	-8.702	45.52	0.37	8.295	5.583	-416.77		-0.86	0.000
790.66	24.780	-9.375	45.57	0.37	8.281	5.567	-428.91		-0.86	0.000
790.93	24.748	-10.024	45.60	0.37	8.256	5.543	-424.54		-0.86	0.000
791.21	24.696	-10.649	45.65	0.37	8.177	5.534	-415.73		-0.86	0.000
791.48	24.641	-11.250	45.71	0.37	8.088	5.480	-389.25		-0.86	0.000
791.75	24.603	-11.803	45.75	0.37	7.996	5.402	-378.24		-0.86	0.000
792.03	24.544	-12.344	45.81	0.37	7.889	5.310	-357.93		-0.86	0.000
792.30	24.481	-12.825	45.87	0.38	7.785	5.207	-340.48		-0.86	0.000
792.58	24.416	-13.293	45.93	0.38	7.681	5.099	-307.21		-0.86	0.000
792.85	24.370	-13.726	45.98	0.38	7.627	4.994	-282.23		-0.86	0.000
793.13	24.302	-14.111	46.05	0.38	7.521	4.887	-235.04		-0.86	0.000
793.40	24.229	-14.459	46.12	0.38	7.419	4.779	-207.12		-0.86	0.000
793.67	24.157	-14.784	46.19	0.38	7.326	4.679	-143.97		-0.86	0.000
793.95	24.107	-15.060	46.24	0.38	7.231	4.589	-116.76		-0.86	0.000
794.23	24.030	-15.288	46.32	0.38	7.159	4.545	-75.79		-0.86	0.000
794.50	23.953	-15.493	46.40	0.38	7.075	4.465	-60.26		-0.86	0.000
794.77	23.902	-15.637	46.45	0.38	7.008	4.394	-19.33		-0.86	0.000
795.04	23.823	-15.745	46.53	0.38	6.942	4.336	-2.55		-0.86	0.000
795.31	23.745	-15.817	46.60	0.38	6.841	4.288	35.54		-0.86	0.000
795.58	23.666	-15.841	46.68	0.38	6.786	4.246	45.93		-0.86	0.000
795.84	23.612	-15.829	46.74	0.38	6.682	4.187	40.16		-0.86	0.000
796.12	23.534	-15.781	46.82	0.38	6.583	4.127	25.83		-0.86	0.000
796.39	23.455	-15.685	46.89	0.38	6.490	4.065	-21.13		-0.86	0.000
796.66	23.404	-15.541	46.95	0.38	6.411	4.035	-46.12		-0.86	0.000
796.94	23.326	-15.361	47.02	0.38	6.341	3.984	-90.94		-0.86	0.000
797.22	23.249	-15.144	47.10	0.39	6.275	3.943	-97.65		-0.86	0.000
797.49	23.175	-14.880	47.18	0.39	6.232	3.905	-98.00		-0.86	0.000
797.76	23.125	-14.567	47.23	0.39	6.175	3.878	-93.82		-0.86	0.000
798.04	23.053	-14.231	47.30	0.39	6.158	3.856	-106.69		-0.86	0.000
798.32	22.984	-13.858	47.37	0.39	6.127	3.838	-130.95		-0.86	0.000
798.59	22.916	-13.438	47.43	0.39	6.089	3.826	-196.91		-0.86	0.000
798.87	22.871	-12.969	47.48	0.39	6.062	3.815	-247.74		-0.86	0.000
799.15	22.807	-12.488	47.54	0.39	6.036	3.803	-255.02		-0.86	0.000
799.43	22.747	-11.971	47.60	0.39	6.014	3.795	-258.13		-0.86	0.000
799.70	22.689	-11.406	47.66	0.39	5.991	3.788	-259.66		-0.86	0.000
799.98	22.650	-10.817	47.70	0.39	5.978	3.784	-289.68		-0.86	0.000
800.25	22.599	-10.192	47.75	0.39	5.965	3.783	-301.78		-0.86	0.000
800.53	22.549	-9.543	47.80	0.39	5.951	3.775	-307.65		-0.86	0.000
800.80	22.504	-8.882	47.85	0.39	5.936	3.772	-302.48		-0.86	0.000
801.08	22.476	-8.197	47.87	0.39	5.929	3.770	-257.68		-0.86	0.000
801.35	22.435	-7.476	47.91	0.39	5.926	3.767	-224.73		-0.86	0.000
801.63	22.400	-6.743	47.95	0.39	5.914	3.763	-152.52		-0.86	0.000
801.90	22.380	-6.010	47.97	0.39	5.902	3.761	-115.41		-0.87	0.000
802.17	22.352	-5.228	48.00	0.39	5.902	3.759	-68.87		-0.87	0.000
802.45	22.329	-4.447	48.02	0.39	5.905	3.757	-55.84		-0.87	0.000
802.72	22.311	-3.666	48.04	0.39	5.889	3.757	-58.54		-0.87	0.000
802.99	22.297	-2.861	48.05	0.39	5.903	3.759	-64.30		-0.87	0.000
803.27	22.285	-2.043	48.06	0.39	5.907	3.759	-98.14		-0.87	0.000
803.53	22.282	-1.250	48.07	0.39	5.895	3.760	-127.00		-0.87	0.000
803.81	22.275	-0.433	48.08	0.39	5.910	3.763	-199.78		-0.87	0.000
804.08	22.275	0.349	48.08	0.39	5.907	3.765	-239.73		-0.87	0.000
804.35	22.275	1.178	48.08	0.39	5.901	3.769	-302.51		-0.87	0.000
804.61	22.275	1.971	48.08	0.39	5.912	3.772	-330.67		-0.87	0.000
804.89	22.276	2.764	48.07	0.39	5.924	3.773	-408.96		-0.87	0.000
805.16	22.297	3.546	48.05	0.39	5.909	3.778	-447.80		-0.87	0.000
805.44	22.317	4.339	48.03	0.39	5.913	3.781	-453.94		-0.87	0.000
805.71	22.331	5.132	48.02	0.39	5.928	3.781	-428.67		-0.87	0.000
805.98	22.362	5.901	47.99	0.39	5.913	3.782	-367.15		-0.87	0.000
806.26	22.393	6.635	47.96	0.39	5.923	3.783	-341.48		-0.87	0.000
806.54	22.429	7.380	47.92	0.39	5.934	3.784	-301.11		-0.87	0.000
806.80	22.453	8.089	47.90	0.39	5.922	3.784	-275.67		-0.87	0.000
807.08	22.495	8.798	47.85	0.39	5.932	3.785	-222.89		-0.87	0.000
807.35	22.541	9.447	47.81	0.39	5.941	3.786	-197.64		-0.87	0.000
807.62	22.575	10.084	47.78	0.39	5.945	3.788	-140.81		-0.87	0.000
807.90	22.626	10.697	47.72	0.39	5.955	3.792	-105.74		-0.87	0.000
808.18	22.682	11.298	47.67	0.39	5.966	3.797	-73.38		-0.87	0.000
808.44	22.740	11.851	47.61	0.39	5.975	3.801	-84.94		-0.87	0.000
808.71	22.780	12.392	47.57	0.39	5.983	3.802	-142.75		-0.87	0.000
808.99	22.843	12.861	47.51	0.39	6.006	3.806	-176.90		-0.87	0.000
809.26	22.909	13.317	47.44	0.39	6.010	3.813	-240.11		-0.87	0.000
809.54	22.954	13.750	47.40	0.39	6.020	3.818	-295.14		-0.87	0.000
809.80	23.023	14.135	47.33	0.39	6.041	3.824	-305.11		-0.87	0.000
810.08	23.095	14.495	47.25	0.39	6.062	3.831	-295.42		-0.87	0.000
810.36	23.170	14.796	47.18	0.39	6.075	3.838	-284.65		-0.87	0.000
810.62	23.218	15.072	47.13	0.39	6.089	3.840	-260.16		-0.87	0.000
810.90	23.294	15.300	47.06	0.38	6.103	3.849	-241.61		-0.87	0.000
811.18	23.371	15.493	46.98	0.38	6.119	3.853	-185.77		-0.87	0.000
811.44	23.422	15.637	46.93	0.38	6.138	3.857	-152.57		-0.87	0.000
811.72	23.502	15.757	46.85	0.38	6.185	3.864	-95.77		-0.87	0.000
811.99	23.581	15.817	46.77	0.38	6.216	3.871	-70.36		-0.87	0.000
812.26	23.658	15.841	46.69	0.38	6.269	3.888	-40.25		-0.87	0.000
812.53	23.713	15.829	46.64	0.38	6.320	3.899	-46.98		-0.87	0.000
812.81	23.790	15.769	46.56	0.38	6.364	3.918	-111.75		-0.87	0.000
813.09	23.870	15.673	46.48	0.38	6.418	3.935	-159.62		-0.87	0.000
813.36	23.923	15.529	46.43	0.38	6.454	3.953	-253.82		-0.87	0.000
813.64	24.000	15.337	46.35	0.38	6.512	3.973	-299.71		-0.87	0.000
813.91	24.076	15.120	46.27	0.38	6.578	3.996	-349.07		-0.87	0.000
814.18	24.149	14.856	46.20	0.38	6.651	4.008	-360.93		-0.87	0.000
814.45	24.200	14.543	46.15	0.38	6.731	4.039	-350.39		-0.87	0.000
814.73	24.272	14.207	46.08	0.38	6.806	4.080	-343.59		-0.87	0.000
815.00	24.341	13.822	46.01	0.38	6.894	4.128	-321.62		-0.87	0.000
815.27	24.386	13.401	45.96	0.38	6.992	4.185	-301.13		-0.87	0.000
815.55	24.454	12.957	45.90	0.38	7.093	4.254	-241.38		-0.87	0.000
815.82	24.516	12.476	45.83	0.37	7.139	4.331	-216.44		-0.87	0.000
816.09	24.577	11.947	45.77	0.37	7.252	4.415	-165.48		-0.87	0.000
816.36	24.617	11.406	45.73	0.37	7.359	4.503	-154.06		-0.87	0.000
816.63	24.672	10.817	45.68	0.37	7.457	4.595	-156.84		-0.87	0.000
816.91	24.725	10.216	45.63	0.37	7.567	4.643	-181.88		-0.87	0.000
817.19	24.775	9.579	45.58	0.37	7.669	4.738	-268.21		-0.87	0.000
817.45	24.805	8.918	45.54	0.37	7.768	4.833	-317.39		-0.87	0.000
817.73	24.849	8.221	45.50	0.37	7.861	4.928	-378.58		-0.87	0.000
818.01	24.886	7.524	45.46	0.37	7.935	5.024	-393.30		-0.87	0.000
818.28	24.912	6.779	45.44	0.37	8.013	5.115	-409.86		-0.87	0.000
818.55	24.941	6.034	45.41	0.37	8.058	5.197	-413.48		-0.87	0.000
818.83	24.970	5.264	45.38	0.37	8.118	5.272	-400.45		-0.87	0.000
819.10	24.994	4.495	45.36	0.37	8.160	5.341	-395.78		-0.87	0.000
819.37	25.008	3.702	45.34	0.37	8.223	5.402	-374.47		-0.87	0.000
819.65	25.023	2.909	45.33	0.37	8.242	5.429	-365.29		-0.87	0.000
819.92	25.032	2.103	45.32	0.37	8.277	5.475	-339.72		-0.87	0.000
820.19	25.039	1.286	45.31	0.37	8.295	5.513	-325.54		-0.87	0.000
820.46	25.041	0.481	45.31	0.37	8.303	5.539	-279.62		-0.87	0.000
820.73	25.041	-0.325	45.31	0.37	8.300	5.559	-262.76		-0.87	0.000
821.00	25.041	-1.118	45.31	0.37	8.301	5.564	-222.02		-0.87	0.000
821.26	25.041	-1.923	45.31	0.37	8.298	5.565	-206.25		-0.87	0.000
821.54	25.041	-2.716	45.31	0.37	8.294	5.563	-194.69		-0.87	0.000
821.81	25.023	-3.510	45.33	0.37	8.296	5.560	-201.69		-0.87	0.000
822.08	25.013	-4.291	45.34	0.37	8.300	5.559	-203.85		-0.87	0.000
822.36	24.985	-5.060	45.37	0.37	8.283	5.555	-195.14		-0.87	0.000
822.63	24.957	-5.841	45.39	0.37	8.263	5.552	-155.87		-0.87	0.000
822.91	24.926	-6.587	45.42	0.37	8.220	5.542	-133.49		-0.87	0.000
823.19	24.904	-7.332	45.45	0.37	8.216	5.517	-118.32		-0.87	0.000
823.46	24.863	-8.065	45.49	0.37	8.218	5.493	-131.66		-0.87	0.000
823.74	24.822	-8.762	45.53	0.37	8.196	5.471	-175.13		-0.87	0.000
824.01	24.791	-9.423	45.56	0.37	8.175	5.457	-216.88		-0.87	0.000
824.29	24.744	-10.072	45.61	0.37	8.147	5.433	-225.58		-0.87	0.000
824.57	24.693	-10.685	45.66	0.37	8.074	5.398	-212.98		-0.87	0.000
824.84	24.635	-11.298	45.72	0.37	7.974	5.332	-197.81		-0.87	0.000
825.12	24.598	-11.851	45.75	0.37	7.890	5.251	-189.20		-0.87	0.000
825.39	24.537	-12.392	45.81	0.37	7.789	5.201	-199.17		-0.87	0.000
825.66	24.473	-12.885	45.88	0.38	7.683	5.098	-232.89		-0.87	0.000
825.94	24.408	-13.341	45.94	0.38	7.569	4.992	-246.40		-0.87	0.000
826.21	24.362	-13.762	45.99	0.38	7.524	4.885	-253.03		-0.87	0.000
826.48	24.293	-14.159	46.06	0.38	7.425	4.780	-258.39		-0.87	0.000
826.77	24.221	-14.495	46.13	0.38	7.319	4.678	-291.35		-0.87	0.000
827.04	24.148	-14.808	46.20	0.38	7.228	4.583	-320.69		-0.87	0.000
827.31	24.098	-15.084	46.25	0.38	7.141	4.492	-408.12		-0.87	0.000
827.59	24.022	-15.312	46.33	0.38	7.060	4.410	-457.37		-0.87	0.000
827.87	23.945	-15.505	46.40	0.38	6.990	4.341	-535.55		-0.87	0.000
828.14	23.867	-15.649	46.48	0.38	6.917	4.280	-550.97		-0.87	0.000
828.41	23.816	-15.757	46.53	0.38	6.863	4.231	-541.79		-0.87	0.000
828.69	23.735	-15.829	46.62	0.38	6.746	4.211	-534.96		-0.87	0.000
828.96	23.657	-15.841	46.69	0.38	6.697	4.170	-504.11		-0.87	0.000
829.30	23.605	-15.829	46.74	0.38	6.598	4.112	-491.35		-0.87	0.000
829.51	23.526	-15.757	46.82	0.38	6.494	4.050	-450.78		-0.87	0.000
829.78	23.446	-15.625	46.90	0.38	6.416	3.995	-425.53		-0.87	0.000
830.06	23.370	-15.505	46.98	0.38	6.334	3.940	-376.44		-0.87	0.000
830.33	23.317	-15.325	47.03	0.38	6.267	3.901	-344.08		-0.87	0.000
830.61	23.243	-15.084	47.11	0.39	6.214	3.863	-289.02		-0.87	0.000
830.89	23.167	-14.820	47.18	0.39	6.165	3.834	-242.04		-0.87	0.000
831.16	23.094	-14.507	47.26	0.39	6.114	3.810	-230.30		-0.87	0.000
831.44	23.047	-14.159	47.30	0.39	6.080	3.791	-209.02		-0.87	0.000
831.71	22.976	-13.762	47.37	0.39	6.044	3.784	-209.29		-0.87	0.000
831.99	22.909	-13.329	47.44	0.39	6.031	3.769	-225.59		-0.87	0.000
832.26	22.843	-12.873	47.51	0.39	6.005	3.757	-231.22		-0.87	0.000
832.54	22.800	-12.380	47.55	0.39	5.979	3.748	-252.56		-0.87	0.000
832.82	22.740	-11.851	47.61	0.39	5.957	3.741	-250.37		-0.87	0.000
833.09	22.682	-11.286	47.67	0.39	5.936	3.737	-258.24		-0.87	0.000
833.36	22.627	-10.685	47.72	0.39	5.921	3.732	-262.77		-0.87	0.000
833.63	22.593	-10.072	47.76	0.39	5.906	3.727	-273.14		-0.87	0.000
833.91	22.545	-9.435	47.80	0.39	5.892	3.723	-270.94		-0.87	0.000
834.19	22.498	-8.762	47.85	0.39	5.879	3.720	-256.69		-0.87	0.000
834.46	22.472	-8.065	47.88	0.39	5.878	3.719	-250.23		-0.87	0.000
834.74	22.431	-7.344	47.92	0.39	5.855	3.716	-237.92		-0.87	0.000
835.02	22.398	-6.623	47.95	0.39	5.861	3.714	-233.96		-0.87	0.000
835.29	22.366	-5.841	47.98	0.39	5.846	3.714	-220.15		-0.87	0.000
835.57	22.340	-5.072	48.01	0.39	5.843	3.713	-202.76		-0.87	0.000
835.85	22.325	-4.279	48.03	0.39	5.851	3.712	-170.82		-0.87	0.000
836.12	22.306	-3.486	48.04	0.39	5.844	3.714	-145.52		-0.87	0.000
836.40	22.294	-2.668	48.06	0.39	5.841	3.716	-102.81		-0.87	0.000
836.67	22.288	-1.875	48.06	0.39	5.843	3.717	-79.22		-0.87	0.000
836.94	22.280	-1.034	48.07	0.39	5.856	3.719	-69.06		-0.87	0.000
837.20	22.279	-0.240	48.07	0.39	5.854	3.722	-40.27		-0.87	0.000
837.47	22.277	0.565	48.07	0.39	5.851	3.725	-10.79		-0.87	0.000
837.73	22.277	1.358	48.07	0.39	5.860	3.727	25.23		-0.87	0.000
838.00	22.277	2.163	48.07	0.39	5.858	3.731	115.03		-0.87	0.000
838.26	22.277	2.921	48.07	0.39	5.866	3.733	149.85		-0.87	0.000
838.53	22.295	3.702	48.05	0.39	5.864	3.738	199.30		-0.87	0.000
838.80	22.318	4.459	48.03	0.39	5.869	3.740	216.81		-0.87	0.000
839.07	22.336	5.240	48.01	0.39	5.869	3.741	246.92		-0.87	0.000
839.34	22.363	5.974	47.99	0.39	5.867	3.745	262.33		-0.87	0.000
839.62	22.397	6.719	47.95	0.39	5.877	3.746	270.61		-0.87	0.000
839.89	22.432	7.440	47.92	0.39	5.874	3.746	258.16		-0.87	0.000
840.16	22.459	8.149	47.89	0.39	5.881	3.747	212.40		-0.87	0.000
840.43	22.500	8.846	47.85	0.39	5.883	3.748	191.75		-0.87	0.000
